X: PhotonEnergy [eV],Y: XCOM:Total...ion[cm^-1],Y: XCOM:Total...Coh[cm^-1]
11,124932,124316
20.4192,124139,123528
29.8383,123346,122740
39.2575,122553,121953
48.6766,121759,121165
58.0958,120966,120377
67.5149,120173,119590
76.9341,119380,118802
86.3532,118587,118014
95.7724,117793,117226
105.192,117000,116439
114.611,116207,115651
124.03,115414,114863
133.449,114621,114076
142.868,113827,113288
152.287,113034,112500
161.706,112241,111712
171.126,111448,110925
180.545,110655,110137
189.964,109861,109349
199.383,109068,108561
208.802,108275,107774
218.221,107482,106986
227.641,106689,106198
237.06,105895,105411
246.479,105102,104623
255.898,104309,103835
265.317,103516,103047
274.736,102723,102260
284.155,101929,101472
293.575,101136,100684
302.994,100343,99896.5
312.413,99549.9,99108.8
321.832,98756.7,98321
331.251,97963.5,97533.3
340.67,97170.3,96745.6
350.089,96377.1,95957.9
359.509,95583.9,95170.2
368.928,94790.8,94382.4
378.347,93997.6,93594.7
387.766,93204.4,92807
397.185,92411.2,92019.3
406.604,91618,91231.5
416.024,90824.8,90443.8
425.443,90031.6,89656.1
434.862,89238.4,88868.4
444.281,88445.2,88080.6
453.7,87652,87292.9
463.119,86858.8,86505.2
472.538,86065.6,85717.5
481.958,85272.4,84929.8
491.377,84479.2,84142
500.796,83686,83354.3
510.215,82892.8,82566.6
519.634,82099.7,81778.9
529.053,81306.5,80991.1
538.473,80513.3,80203.4
547.892,79720.1,79415.7
557.311,78926.9,78628
566.73,78133.7,77840.2
576.149,77340.5,77052.5
585.568,76547.3,76264.8
594.987,75754.1,75477.1
604.407,74960.9,74689.4
613.826,74167.7,73901.6
623.245,73374.5,73113.9
632.664,72581.3,72326.2
642.083,71788.1,71538.5
651.502,70994.9,70750.7
660.922,70201.8,69963
670.341,69408.6,69175.3
679.76,68615.4,68387.6
689.179,67822.2,67599.8
698.598,67029,66812.1
708.017,66235.8,66024.4
717.436,65442.6,65236.7
726.856,64649.4,64449
736.275,63856.2,63661.2
745.694,63063,62873.5
755.113,62269.8,62085.8
764.532,61476.6,61298.1
773.951,60683.4,60510.3
783.37,59890.2,59722.6
792.79,59097,58934.9
802.209,58303.8,58147.2
811.628,57510.7,57359.4
821.047,56717.5,56571.7
830.466,55924.3,55784
839.885,55131.1,54996.3
849.305,54337.9,54208.6
858.724,53544.7,53420.8
868.143,52751.5,52633.1
877.562,51958.3,51845.4
886.981,51165.1,51057.7
896.4,50371.9,50269.9
905.819,49578.7,49482.2
915.239,48785.5,48694.5
924.658,47992.3,47906.8
934.077,47199.1,47119
943.496,46406,46331.3
952.915,45612.8,45543.6
962.334,44819.6,44755.9
971.754,44026.4,43968.1
981.173,43233.2,43180.4
990.592,42440,42392.7
1000.01,41646.8,41605
1009.43,40853.6,40817.3
1018.85,40064.9,40033.1
1028.27,39321.5,39284.7
1037.69,38578.1,38536.4
1047.11,37858.5,37816.6
1056.53,37139.6,37097.8
1065.95,37520.4,37478.6
1075.36,37643.1,37601.3
1084.78,36930.9,36892
1094.2,36246.3,36212.1
1103.62,35576.2,35544.8
1113.04,34929.1,34897.8
1122.46,34290.1,34258
1131.88,33694.8,33658.3
1141.3,33099.6,33058.5
1150.72,32543,32504.7
1160.14,31995.1,31961
1169.56,31447.8,31416.4
1178.97,30901.8,30870.4
1188.39,30358.5,30327
1197.81,29878.5,29842.8
1207.23,29398.5,29358.7
1216.65,28903.1,28861.2
1226.07,29114.6,29072.8
1235.49,28597.8,28556
1244.91,28126,28084.2
1254.33,27654.2,27612.4
1263.75,27201.8,27162
1273.17,26768.6,26732.7
1282.59,26335.3,26303.4
1292,25918.8,25884.1
1301.42,25505.2,25466.6
1310.84,25097.8,25056.7
1320.26,24715.3,24678
1329.68,24332.8,24299.3
1339.1,23956.9,23923.9
1348.52,23589.5,23552.7
1357.94,23222.2,23181.6
1367.36,22866.1,22827.6
1376.78,22515.4,22481.8
1386.2,22164.7,22136
1395.62,21852,21820.6
1405.03,21542.9,21508
1414.45,21233.8,21195.3
1423.87,20923.2,20884.5
1433.29,20612.5,20573.8
1442.71,20303.5,20264.9
1452.13,20016.6,19978.7
1461.55,19729.6,19692.4
1470.97,19445,19408.4
1480.39,19180.1,19143.9
1489.81,18915.3,18879.4
1499.23,18652.1,18616.3
1508.65,18397.2,18360.6
1518.06,18137.1,18100.5
1527.48,17877,17840.4
1536.9,17620.6,17584
1546.32,17365,17328.4
1555.74,17109.3,17072.7
1565.16,16874.1,16837.8
1574.58,16645.4,16609.4
1584,16416.7,16381
1593.42,16193,16157.3
1602.84,15974.7,15938.7
1612.26,15756.5,15720.2
1621.68,15541.1,15504.6
1631.09,15338.3,15302.4
1640.51,15135.5,15100.3
1649.93,14932.7,14898.1
1659.35,14737.4,14702.9
1668.77,14544.2,14509.7
1678.19,14350.9,14316.4
1687.61,14163.1,14128.5
1697.03,13984.1,13949.2
1706.45,13805.1,13769.9
1715.87,13626,13590.5
1725.29,13453.6,13418.3
1734.7,13282,13247
1744.12,13110.4,13075.8
1753.54,12945.4,12910.8
1762.96,12791.2,12756.4
1772.38,12637.1,12601.9
1781.8,12482.9,12447.5
1791.22,12333,12297.7
1800.64,12185.3,12150.2
1810.06,12037.6,12002.8
1819.48,11889.9,11855.4
1828.9,11748.9,11714.1
1838.32,11608.2,11573.2
1847.73,11467.5,11432.2
1857.15,11329,11293.5
1866.57,11197.7,11162.5
1875.99,11066.4,11031.5
1885.41,10935.2,10900.5
1894.83,10807.7,10773.2
1904.25,10685.8,10651.3
1913.67,10563.9,10529.4
1923.09,10442,10407.5
1932.51,10324.2,10289.8
1941.93,10210.7,10176.6
1951.35,10097.2,10063.3
1960.76,9983.69,9950.09
1970.18,9873.01,9839.43
1979.6,9765.86,9731.98
1989.02,9658.7,9624.54
1998.44,9551.55,9517.1
2007.86,9439.27,9404.98
2017.28,9336.13,9302.33
2026.7,9232.99,9199.68
2036.12,9129.85,9097.03
2045.54,9027.55,8995.1
2054.96,8929.57,8896.88
2064.38,8831.6,8798.66
2073.79,8733.63,8700.44
2083.21,8635.66,8602.22
2092.63,8541.74,8508.07
2102.05,8448.2,8414.28
2111.47,8354.66,8320.49
2120.89,8261.12,8226.7
2130.31,8173.23,8138.73
2139.73,8088.12,8053.63
2149.15,8003.02,7968.53
2158.57,7917.92,7883.42
2167.99,7833.66,7799.16
2177.41,7752.54,7718.04
2186.82,7671.42,7636.93
2196.24,7590.31,7555.81
2205.66,7509.19,7474.69
2215.08,7432.08,7397.92
2224.5,7356.28,7322.59
2233.92,7280.49,7247.25
2243.34,7204.69,7171.91
2252.76,7129.88,7097.48
2262.18,7059.39,7026.99
2271.6,6988.9,6956.49
2281.02,6918.41,6886
2290.43,6847.92,6815.51
2299.85,6780.03,6747.63
2309.27,6714.61,6682.2
2318.69,6649.18,6616.78
2328.11,6583.76,6551.35
2337.53,6518.33,6485.93
2346.95,6455.85,6423.45
2356.37,6394.42,6362.01
2365.79,6332.99,6300.58
2375.21,6271.55,6239.15
2384.63,6210.12,6177.71
2394.05,6152.31,6119.9
2403.46,6095.11,6062.71
2412.88,6037.92,6005.51
2422.3,5980.73,5948.32
2431.72,5923.53,5891.13
2441.14,5868.69,5836.29
2450.56,5814.22,5781.81
2459.98,5759.75,5727.35
2469.4,5705.28,5672.88
2478.82,5650.81,5618.41
2488.24,5600.22,5567.81
2497.66,5550.18,5517.78
2507.08,5500.15,5467.74
2516.49,5450.11,5417.7
2525.91,5400.07,5367.67
2535.33,5351.52,5319.39
2544.75,5303.7,5271.96
2554.17,5255.87,5224.54
2563.59,5208.04,5177.11
2573.01,5160.22,5129.69
2582.43,5114.45,5084.05
2591.85,5071.01,5040.41
2601.27,5027.57,4996.78
2610.69,4984.13,4953.15
2620.11,4940.69,4909.51
2629.52,4897.35,4865.99
2638.94,4855.65,4824.28
2648.36,4813.94,4782.58
2657.78,4772.24,4740.88
2667.2,4730.54,4699.17
2676.62,4688.83,4657.47
2686.04,4648.86,4617.62
2695.46,4609.85,4578.8
2704.88,4570.84,4539.98
2714.3,4531.83,4501.16
2723.72,4492.83,4462.35
2733.14,4454.21,4423.9
2742.55,4418.48,4388.16
2751.97,4382.74,4352.42
2761.39,4347,4316.68
2770.81,4311.26,4280.94
2780.23,4275.52,4245.2
2789.65,4240.49,4210.17
2799.07,4206.57,4176.25
2808.49,4172.65,4142.34
2817.91,4138.74,4108.42
2827.33,4104.82,4074.51
2836.75,4070.91,4040.59
2846.16,4038.59,4008.27
2855.58,4007.11,3976.8
2865,3975.64,3945.33
2874.42,3944.17,3913.85
2883.84,3912.69,3882.38
2893.26,3881.22,3850.9
2902.68,3851.24,3820.92
2912.1,3821.87,3791.56
2921.52,3792.51,3762.19
2930.94,3763.14,3732.82
2940.36,3733.77,3703.46
2949.78,3704.41,3674.09
2959.19,3675.89,3645.57
2968.61,3647.82,3617.5
2978.03,3619.74,3589.43
2987.45,3591.67,3561.35
2996.87,3563.6,3533.28
3006.29,3534.54,3504.89
3015.71,3506.83,3477.45
3025.13,3480.29,3450.75
3034.55,3453.76,3424.05
3043.97,3427.22,3397.35
3053.39,3400.68,3370.65
3062.81,3374.15,3343.94
3072.22,3348.16,3317.9
3081.64,3323.21,3293.12
3091.06,3298.27,3268.34
3100.48,3273.32,3243.56
3109.9,3248.38,3218.78
3119.32,3223.44,3194
3128.74,3198.49,3169.21
3138.16,3175.04,3145.93
3147.58,3151.64,3122.68
3157,3128.23,3099.44
3166.42,3104.82,3076.2
3175.84,3081.42,3052.95
3185.25,3058.01,3029.71
3194.67,3035.44,3007.22
3204.09,3013.72,2985.49
3213.51,2991.99,2963.77
3222.93,2970.27,2942.04
3232.35,2948.54,2920.32
3241.77,2926.82,2898.59
3251.19,2905.09,2876.87
3260.61,2884.5,2856.28
3270.03,2864.18,2835.96
3279.45,2843.87,2815.64
3288.86,2823.55,2795.32
3298.28,2803.23,2775.01
3307.7,2782.91,2754.69
3317.12,2762.74,2734.52
3326.54,2743.65,2715.43
3335.96,2724.57,2696.34
3345.38,2705.48,2677.25
3354.8,2686.39,2658.17
3364.22,2667.31,2639.08
3373.64,2648.22,2619.99
3383.06,2629.42,2601.2
3392.48,2611.67,2583.44
3401.9,2593.91,2565.69
3411.31,2576.16,2547.94
3420.73,2558.41,2530.18
3430.15,2540.65,2512.43
3439.57,2522.9,2494.67
3448.99,2505.44,2477.22
3458.41,2489.08,2460.85
3467.83,2472.72,2444.49
3477.25,2456.35,2428.13
3486.67,2439.99,2411.76
3496.09,2423.63,2395.4
3505.51,2407.26,2379.04
3514.92,2390.9,2362.68
3524.34,2375.11,2347.12
3533.76,2359.33,2331.57
3543.18,2343.55,2316.01
3552.6,2327.76,2300.46
3562.02,2311.98,2284.91
3571.44,2296.2,2269.36
3580.86,2280.41,2253.81
3590.28,2265.71,2239.05
3599.7,2251.32,2224.51
3609.12,2236.93,2209.98
3618.54,2222.54,2195.45
3627.95,2208.15,2180.92
3637.37,2193.76,2166.39
3646.79,2179.37,2151.86
3656.21,2165.31,2137.76
3665.63,2151.89,2124.5
3675.05,2138.48,2111.23
3684.47,2125.06,2097.97
3693.89,2111.65,2084.7
3703.31,2098.23,2071.43
3712.73,2084.81,2058.17
3722.15,2071.4,2044.9
3731.57,2058.49,2032.06
3740.98,2045.82,2019.39
3750.4,2033.14,2006.72
3759.82,2020.46,1994.06
3769.24,2007.78,1981.39
3778.66,1995.1,1968.73
3788.08,1982.42,1956.06
3797.5,1969.74,1943.4
3806.92,1957.92,1931.6
3816.34,1946.14,1919.85
3825.76,1934.37,1908.1
3835.18,1922.59,1896.35
3844.59,1910.81,1884.6
3854.01,1899.04,1872.85
3863.43,1887.26,1861.1
3872.85,1875.56,1849.43
3882.27,1864.58,1838.48
3891.69,1853.61,1827.53
3901.11,1842.64,1816.58
3910.53,1831.66,1805.64
3919.95,1820.69,1794.69
3929.37,1809.72,1783.74
3938.79,1798.74,1772.79
3948.21,1787.78,1761.86
3957.62,1777.29,1751.44
3967.04,1766.8,1741.03
3976.46,1756.31,1730.61
3985.88,1745.82,1720.2
3995.3,1735.33,1709.78
4004.72,1725.02,1699.47
4014.14,1714.9,1689.27
4023.56,1704.78,1679.07
4032.98,1694.96,1669.29
4042.4,1685.2,1659.58
4051.82,1675.44,1649.87
4061.24,1665.68,1640.16
4070.65,1655.92,1630.45
4080.07,1646.17,1620.74
4089.49,1636.41,1611.03
4098.91,1626.65,1601.32
4108.33,1617.17,1591.88
4117.75,1608.03,1582.76
4127.17,1598.88,1573.64
4136.59,1589.74,1564.52
4146.01,1580.59,1555.4
4155.43,1571.45,1546.28
4164.85,1562.3,1537.16
4174.27,1553.16,1528.04
4183.68,1544.01,1518.92
4193.1,1535.49,1510.43
4202.52,1526.99,1501.97
4211.94,1518.48,1493.5
4221.36,1509.98,1485.04
4230.78,1501.48,1476.57
4240.2,1492.98,1468.11
4249.62,1484.48,1459.64
4259.04,1475.98,1451.17
4268.46,1467.61,1442.84
4277.88,1459.61,1434.88
4287.29,1451.61,1426.92
4296.71,1443.62,1418.96
4306.13,1435.62,1411
4315.55,1427.63,1403.04
4324.97,1419.63,1395.08
4334.39,1411.63,1387.12
4343.81,1403.64,1379.16
4353.23,1395.9,1371.45
4362.65,1388.47,1364.05
4372.07,1381.05,1356.64
4381.49,1373.62,1349.24
4390.91,1366.2,1341.84
4400.33,1358.77,1334.44
4409.74,1351.35,1327.03
4419.16,1343.92,1319.63
4428.58,1336.5,1312.23
4438,1329.29,1305.05
4447.42,1322.39,1298.17
4456.84,1315.48,1291.29
4466.26,1308.58,1284.4
4475.68,1301.68,1277.52
4485.1,1294.77,1270.64
4494.52,1287.87,1263.76
4503.94,1280.96,1256.88
4513.35,1274.06,1250
4522.77,1267.22,1243.18
4532.19,1260.64,1236.64
4541.61,1254.06,1230.11
4551.03,1247.49,1223.57
4560.45,2332.49,2308.59
4569.87,2321.83,2297.95
4579.29,2311.17,2287.3
4588.71,2300.52,2276.66
4598.13,2289.86,2266.01
4607.55,2279.2,2255.37
4616.97,2269.24,2245.42
4626.38,2259.4,2235.61
4635.8,2249.57,2225.8
4645.22,2239.73,2215.98
4654.64,2229.9,2206.17
4664.06,2220.06,2196.35
4673.48,2210.23,2186.54
4682.9,2200.39,2176.73
4692.32,2190.55,2166.91
4701.74,2180.86,2157.27
4711.16,2171.5,2148.03
4720.58,2162.15,2138.8
4730,2152.8,2129.56
4739.41,2143.44,2120.32
4748.83,2134.09,2111.09
4758.25,2124.73,2101.85
4767.67,2115.38,2092.61
4777.09,2106.03,2083.38
4786.51,2096.67,2074.14
4795.93,2087.69,2065.14
4805.35,2079.04,2056.35
4814.77,2070.39,2047.56
4824.19,2061.74,2038.77
4833.61,2053.09,2029.98
4843.02,2044.44,2021.19
4852.44,2260.88,2237.49
4861.86,2531.94,2508.87
4871.28,2521.41,2498.67
4880.7,2510.88,2488.47
4890.12,2500.79,2478.53
4899.54,2491.07,2468.82
4908.96,2481.35,2459.11
4918.38,2471.62,2449.39
4927.8,2461.9,2439.68
4937.22,2452.18,2429.97
4946.64,2442.46,2420.26
4956.06,2432.73,2410.55
4965.47,2423.01,2400.83
4974.89,2413.29,2391.12
4984.31,2403.71,2381.57
4993.73,2394.31,2372.22
5003.15,2384.34,2362.29
5012.57,2949.72,2927.72
5021.99,3369.29,3347.34
5031.41,3353.46,3331.51
5040.83,3337.63,3315.68
5050.25,3321.8,3299.85
5059.67,3305.97,3284.02
5069.08,3290.14,3268.19
5078.5,3274.35,3252.4
5087.92,3259.34,3237.38
5097.34,3244.32,3222.36
5106.76,3229.3,3207.35
5116.18,3214.28,3192.33
5125.6,3199.26,3177.31
5135.02,3184.24,3162.29
5144.44,3169.23,3147.27
5153.86,3154.21,3132.25
5163.28,3139.19,3117.24
5172.7,3124.17,3102.22
5182.11,3109.54,3087.59
5191.53,3354.19,3332.23
5200.95,3339.43,3317.48
5210.37,3324.67,3302.72
5219.79,3309.91,3287.96
5229.21,3295.15,3273.2
5238.63,3280.39,3258.44
5248.05,3265.64,3243.68
5257.47,3250.88,3228.93
5266.89,3236.12,3214.17
5276.31,3221.36,3199.41
5285.73,3207.41,3185.46
5295.14,3193.64,3171.69
5304.56,3179.88,3157.92
5313.98,3166.11,3144.15
5323.4,3152.34,3130.38
5332.82,3138.57,3116.61
5342.24,3124.8,3102.84
5351.66,3111.03,3089.07
5361.08,3570.09,3548.19
5370.5,3553.71,3532.28
5379.92,3537.34,3516.38
5389.34,3522.38,3501.48
5398.75,3507.62,3486.71
5408.17,3492.85,3471.94
5417.59,3478.07,3457.17
5427.01,3463.31,3442.4
5436.43,3448.54,3427.63
5445.85,3433.77,3412.86
5455.27,3419,3398.09
5464.69,3404.23,3383.32
5474.11,3389.46,3368.55
5483.53,3374.69,3353.78
5492.95,3360.53,3339.62
5502.37,3346.72,3325.82
5511.79,3332.92,3312.01
5521.2,3319.12,3298.21
5530.62,3305.31,3284.41
5540.04,3291.51,3270.6
5549.46,3277.71,3256.8
5558.88,3263.9,3242.99
5568.3,3250.1,3229.19
5577.72,3236.29,3215.39
5587.14,3222.49,3201.58
5596.56,3208.9,3188
5605.98,3195.9,3174.99
5615.4,3182.89,3161.98
5624.81,3169.88,3148.97
5634.23,3156.87,3135.96
5643.65,3143.86,3122.95
5653.07,3130.85,3109.95
5662.49,3117.85,3096.94
5671.91,3104.84,3083.93
5681.33,3091.83,3070.92
5690.75,3078.82,3057.91
5700.17,3065.81,3044.9
5709.59,3053.28,3032.37
5719.01,3269.32,3248.41
5728.43,3256.56,3235.65
5737.84,3243.8,3222.89
5747.26,3231.03,3210.13
5756.68,3218.27,3197.36
5766.1,3205.51,3184.6
5775.52,3192.75,3171.84
5784.94,3179.99,3159.08
5794.36,3167.22,3146.32
5803.78,3154.46,3133.56
5813.2,3141.7,3120.79
5822.62,3129.46,3108.63
5832.04,3117.35,3096.6
5841.46,3105.24,3084.58
5850.87,3093.13,3072.55
5860.29,3081.02,3060.53
5869.71,3068.9,3048.5
5879.13,3056.79,3036.48
5888.55,3044.68,3024.45
5897.97,3032.57,3012.43
5907.39,3020.46,3000.4
5916.81,3008.34,2988.38
5926.23,2996.23,2976.35
5935.65,2984.85,2964.99
5945.07,2973.63,2953.77
5954.48,2962.42,2942.56
5963.9,2951.21,2931.34
5973.32,2939.99,2920.13
5982.74,2928.78,2908.92
5992.16,2917.56,2897.7
6001.58,2906.28,2886.38
6011,2894.64,2874.52
6020.42,2883,2862.66
6029.84,2871.37,2850.8
6039.26,2859.73,2838.94
6048.68,2848.41,2827.54
6058.1,2837.4,2816.62
6067.52,2826.4,2805.7
6076.93,2815.39,2794.77
6086.35,2804.39,2783.85
6095.77,2793.38,2772.93
6105.19,2782.38,2762.01
6114.61,2771.37,2751.09
6124.03,2760.37,2740.16
6133.45,2749.36,2729.24
6142.87,2738.36,2718.32
6152.29,2727.35,2707.4
6161.71,2716.35,2696.48
6171.13,2705.85,2686.06
6180.54,2695.43,2675.72
6189.96,2685.01,2665.38
6199.38,2674.58,2655.04
6208.8,2664.16,2644.7
6218.22,2653.74,2634.36
6227.64,2643.32,2624.02
6237.06,2632.9,2613.68
6246.48,2622.48,2603.34
6255.9,2612.06,2593.01
6265.32,2601.64,2582.67
6274.74,2591.22,2572.33
6284.16,2580.89,2562.08
6293.57,2571.2,2552.47
6302.99,2561.51,2542.87
6312.41,2551.83,2533.26
6321.83,2542.14,2523.65
6331.25,2532.45,2514.05
6340.67,2522.77,2504.44
6350.09,2513.08,2494.83
6359.51,2503.4,2485.23
6368.93,2493.71,2475.62
6378.35,2484.02,2466.02
6387.77,2474.34,2456.41
6397.19,2464.65,2446.8
6406.6,2455.01,2437.24
6416.02,2446.03,2428.26
6425.44,2437.05,2419.28
6434.86,2428.07,2410.3
6444.28,2419.09,2401.32
6453.7,2410.11,2392.34
6463.12,2401.13,2383.36
6472.54,2392.15,2374.38
6481.96,2383.17,2365.4
6491.38,2374.19,2356.42
6500.8,2365.21,2347.44
6510.21,2356.23,2338.46
6519.63,2347.25,2329.48
6529.05,2338.27,2320.5
6538.47,2329.76,2311.96
6547.89,2321.37,2303.55
6557.31,2312.99,2295.13
6566.73,2304.6,2286.72
6576.15,2296.22,2278.3
6585.57,2287.83,2269.89
6594.99,2279.45,2261.47
6604.41,2271.06,2253.05
6613.83,2262.68,2244.64
6623.24,2254.3,2236.22
6632.66,2245.91,2227.81
6642.08,2237.53,2219.39
6651.5,2229.14,2210.98
6660.92,2220.86,2202.67
6670.34,2213.01,2194.82
6679.76,2205.15,2186.96
6689.18,2197.3,2179.11
6698.6,2189.45,2171.26
6708.02,2181.59,2163.4
6717.44,2173.74,2155.55
6726.86,2165.88,2147.69
6736.27,2158.03,2139.84
6745.69,2150.17,2131.98
6755.11,2142.32,2124.13
6764.53,2134.46,2116.27
6773.95,2126.61,2108.42
6783.37,2118.76,2100.57
6792.79,2111.13,2092.95
6802.21,2103.84,2085.68
6811.63,2096.56,2078.41
6821.05,2089.27,2071.14
6830.47,2081.99,2063.87
6839.89,2074.7,2056.6
6849.3,2067.42,2049.33
6858.72,2060.13,2042.05
6868.14,2052.85,2034.78
6877.56,2045.56,2027.51
6886.98,2038.28,2020.24
6896.4,2030.99,2012.97
6905.82,2023.71,2005.7
6915.24,2016.43,1998.43
6924.66,2009.27,1991.3
6934.08,2002.45,1984.52
6943.5,1995.63,1977.73
6952.92,1988.81,1970.95
6962.33,1981.99,1964.17
6971.75,1975.17,1957.39
6981.17,1968.35,1950.6
6990.59,1961.53,1943.82
7000.01,1954.71,1937.04
7009.43,1947.89,1930.25
7018.85,1941.07,1923.47
7028.27,1934.26,1916.69
7037.69,1927.44,1909.9
7047.11,1920.62,1903.12
7056.53,1913.8,1896.34
7065.95,1907.42,1889.97
7075.36,1901.06,1883.63
7084.78,1894.7,1877.28
7094.2,1888.34,1870.94
7103.62,1881.99,1864.6
7113.04,1875.63,1858.26
7122.46,1869.27,1851.91
7131.88,1862.91,1845.57
7141.3,1856.56,1839.23
7150.72,1850.2,1832.88
7160.14,1843.84,1826.54
7169.56,1837.48,1820.2
7178.97,1831.13,1813.85
7188.39,1824.77,1807.51
7197.81,1818.54,1801.3
7207.23,1812.62,1795.39
7216.65,1806.7,1789.48
7226.07,1800.78,1783.57
7235.49,1794.85,1777.67
7244.91,1788.93,1771.76
7254.33,1783.01,1765.85
7263.75,1777.09,1759.94
7273.17,1771.17,1754.03
7282.59,1765.24,1748.13
7292,1759.32,1742.22
7301.42,1753.4,1736.31
7310.84,1747.48,1730.4
7320.26,1741.56,1724.49
7329.68,1735.64,1718.59
7339.1,1729.84,1712.8
7348.52,1724.29,1707.27
7357.94,1718.74,1701.74
7367.36,1713.19,1696.22
7376.78,1707.64,1690.69
7386.2,1702.09,1685.16
7395.62,1696.54,1679.63
7405.03,1690.99,1674.1
7414.45,1685.44,1668.57
7423.87,1679.89,1663.04
7433.29,1674.34,1657.51
7442.71,1668.79,1651.98
7452.13,1663.24,1646.45
7461.55,1657.69,1640.92
7470.97,1652.14,1635.39
7480.39,1646.64,1629.92
7489.81,1641.47,1624.77
7499.23,1636.3,1619.62
7508.65,1631.12,1614.46
7518.06,1625.95,1609.31
7527.48,1620.78,1604.16
7536.9,1615.61,1599
7546.32,1610.43,1593.85
7555.74,1605.26,1588.7
7565.16,1600.09,1583.55
7574.58,1594.92,1578.39
7584,1589.74,1573.24
7593.42,1584.57,1568.09
7602.84,1579.4,1562.94
7612.26,1574.22,1557.78
7621.68,1569.05,1552.63
7631.09,1564.12,1547.73
7640.51,1559.33,1542.95
7649.93,1554.54,1538.18
7659.35,1549.75,1533.41
7668.77,1544.96,1528.64
7678.19,1540.16,1523.86
7687.61,1535.37,1519.09
7697.03,1530.58,1514.32
7706.45,1525.79,1509.55
7715.87,1521,1504.77
7725.29,1516.2,1500
7734.71,1511.41,1495.23
7744.12,1506.62,1490.46
7753.54,1501.83,1485.69
7762.96,1497.04,1480.91
7772.38,1492.25,1476.14
7781.8,1487.67,1471.58
7791.22,1483.18,1467.11
7800.64,1478.69,1462.63
7810.06,1474.2,1458.15
7819.48,1469.71,1453.68
7828.9,1465.23,1449.2
7838.32,1460.74,1444.72
7847.73,1456.25,1440.25
7857.15,1451.76,1435.77
7866.57,1447.27,1431.3
7875.99,1442.78,1426.82
7885.41,1438.29,1422.34
7894.83,1433.8,1417.87
7904.25,1429.31,1413.39
7913.67,1424.82,1408.91
7923.09,1420.33,1404.44
7932.51,1415.95,1400.07
7941.93,1411.65,1395.78
7951.35,1407.35,1391.49
7960.76,1403.04,1387.2
7970.18,1398.74,1382.91
7979.6,1394.44,1378.62
7989.02,1390.14,1374.33
7998.44,1385.83,1370.05
8007.86,1381.63,1365.87
8017.28,1377.46,1361.71
8026.7,1373.28,1357.56
8036.12,1369.1,1353.4
8045.54,1364.92,1349.25
8054.96,1360.74,1345.09
8064.38,1356.56,1340.94
8073.79,1352.38,1336.79
8083.21,1348.23,1332.65
8092.63,1344.25,1328.68
8102.05,1340.26,1324.7
8111.47,1336.28,1320.73
8120.89,1332.3,1316.75
8130.31,1328.32,1312.77
8139.73,1324.34,1308.8
8149.15,1320.35,1304.82
8158.57,1316.37,1300.85
8167.99,1312.39,1296.87
8177.4,1308.41,1292.89
8186.82,1304.42,1288.92
8196.24,1300.44,1284.94
8205.66,1296.46,1280.97
8215.08,1292.48,1276.99
8224.5,1288.5,1273.01
8233.92,1284.51,1269.04
8243.34,1280.63,1265.16
8252.76,1276.91,1261.47
8262.18,1273.2,1257.77
8271.6,1269.49,1254.08
8281.02,1265.78,1250.39
8290.43,1262.06,1246.69
8299.85,1258.35,1243
8309.27,1254.64,1239.3
8318.69,1250.93,1235.61
8328.11,1247.22,1231.92
8337.53,1243.5,1228.22
8346.95,1239.79,1224.53
8356.37,1236.08,1220.83
8365.79,1232.37,1217.14
8375.21,1228.65,1213.45
8384.63,1224.94,1209.75
8394.05,1221.23,1206.06
8403.46,1217.58,1202.43
8412.88,1214.11,1198.98
8422.3,1210.64,1195.54
8431.72,1207.17,1192.09
8441.14,1203.7,1188.64
8450.56,1200.23,1185.2
8459.98,1196.76,1181.75
8469.4,1193.29,1178.3
8478.82,1189.82,1174.86
8488.24,1186.35,1171.41
8497.66,1182.88,1167.97
8507.08,1179.41,1164.52
8516.5,1175.94,1161.07
8525.91,1172.47,1157.63
8535.33,1169,1154.18
8544.75,1165.53,1150.73
8554.17,1162.06,1147.29
8563.59,1158.59,1143.84
8573.01,1155.32,1140.59
8582.43,1152.09,1137.37
8591.85,1148.86,1134.15
8601.27,1145.62,1130.93
8610.69,1142.39,1127.71
8620.11,1139.16,1124.49
8629.52,1135.93,1121.27
8638.94,1132.7,1118.05
8648.36,1129.47,1114.83
8657.78,1126.24,1111.61
8667.2,1123.01,1108.4
8676.62,1119.78,1105.18
8686.04,1116.55,1101.96
8695.46,1113.31,1098.74
8704.88,1110.08,1095.52
8714.3,1106.85,1092.3
8723.72,1103.62,1089.08
8733.13,1100.42,1085.89
8742.55,1097.42,1082.89
8751.97,1094.42,1079.9
8761.39,1091.42,1076.9
8770.81,1088.42,1073.91
8780.23,1085.42,1070.92
8789.65,1082.42,1067.92
8799.07,1079.42,1064.93
8808.49,1076.42,1061.93
8817.91,1073.42,1058.94
8827.33,1070.42,1055.95
8836.75,1067.42,1052.95
8846.17,1064.42,1049.96
8855.58,1061.42,1046.96
8865,1058.42,1043.97
8874.42,1055.42,1040.97
8883.84,1052.42,1037.98
8893.26,1049.42,1034.98
8902.68,1046.42,1031.99
8912.1,1043.61,1029.2
8921.52,1040.81,1026.42
8930.94,1038.01,1023.63
8940.36,1035.21,1020.85
8949.78,1032.4,1018.06
8959.19,1029.6,1015.28
8968.61,1026.8,1012.49
8978.03,1024,1009.71
8987.45,1021.2,1006.93
8996.87,1018.4,1004.14
9006.29,1015.6,1001.36
9015.71,1012.8,998.573
9025.13,1010,995.789
9034.55,1007.19,993.005
9043.97,1004.39,990.221
9053.39,1001.59,987.436
9062.81,998.79,984.652
9072.22,995.989,981.868
9081.64,993.285,979.18
9091.06,990.679,976.591
9100.48,988.074,974.003
9109.9,985.468,971.414
9119.32,982.863,968.825
9128.74,980.257,966.236
9138.16,977.652,963.647
9147.58,975.047,961.058
9157,972.441,958.47
9166.42,969.835,955.88
9175.84,967.23,953.291
9185.25,964.624,950.703
9194.67,962.019,948.114
9204.09,959.414,945.525
9213.51,956.808,942.936
9222.93,954.203,940.347
9232.35,951.597,937.759
9241.77,948.992,935.169
9251.19,946.386,932.581
9260.61,943.884,930.092
9270.03,941.453,927.671
9279.45,939.021,925.25
9288.86,936.589,922.83
9298.28,934.157,920.408
9307.7,931.726,917.987
9317.12,929.294,915.567
9326.54,926.862,913.146
9335.96,924.431,910.725
9345.38,921.999,908.304
9354.8,919.567,905.883
9364.22,917.136,903.463
9373.64,914.704,901.042
9383.06,912.272,898.621
9392.48,909.84,896.2
9401.89,907.409,893.779
9411.31,904.977,891.359
9420.73,902.545,888.938
9430.15,900.114,886.517
9439.57,897.739,884.156
9448.99,895.46,881.892
9458.41,893.18,879.628
9467.83,890.9,877.365
9477.25,888.621,875.101
9486.67,886.341,872.837
9496.09,884.061,870.574
9505.51,881.781,868.31
9514.92,879.502,866.046
9524.34,877.222,863.783
9533.76,874.943,861.519
9543.18,872.663,859.256
9552.6,870.383,856.992
9562.02,868.104,854.729
9571.44,865.824,852.465
9580.86,863.544,850.201
9590.28,861.264,847.937
9599.7,858.985,845.674
9609.12,856.705,843.41
9618.54,854.425,841.147
9627.95,852.288,839.021
9637.37,850.177,836.921
9646.79,848.067,834.82
9656.21,845.956,832.72
9665.63,843.845,830.62
9675.05,841.735,828.52
9684.47,839.624,826.42
9693.89,837.513,824.319
9703.31,835.403,822.219
9712.73,833.292,820.119
9722.15,831.181,818.018
9731.57,829.07,815.918
9740.98,826.96,813.818
9750.4,824.849,811.718
9759.82,822.738,809.617
9769.24,820.627,807.517
9778.66,818.517,805.417
9788.08,816.406,803.317
9797.5,814.295,801.216
9806.92,812.185,799.116
9816.34,810.199,797.141
9825.76,808.23,795.182
9835.18,806.26,793.223
9844.59,804.291,791.264
9854.01,802.322,789.305
9863.43,800.352,787.346
9872.85,798.383,785.387
9882.27,796.414,783.428
9891.69,794.444,781.468
9901.11,792.475,779.509
9910.53,790.506,777.55
9919.95,788.537,775.591
9929.37,786.567,773.632
9938.79,784.598,771.673
9948.21,782.629,769.714
9957.62,780.659,767.755
9967.04,778.69,765.796
9976.46,776.721,763.837
9985.88,774.752,761.878
9995.3,772.782,759.919
10004.7,770.882,758.029
10014.1,769.051,756.207
10023.6,767.219,754.385
10033,765.388,752.564
10042.4,763.556,750.742
10051.8,761.725,748.921
10061.2,759.893,747.099
10070.7,758.062,745.278
10080.1,756.23,743.456
10089.5,754.399,741.634
10098.9,752.567,739.813
10108.3,750.736,737.991
10117.8,748.905,736.17
10127.2,747.073,734.348
10136.6,745.242,732.526
10146,743.41,730.705
10155.4,741.578,728.883
10164.8,739.747,727.061
10174.3,737.916,725.24
10183.7,736.084,723.418
10193.1,734.253,721.597
10202.5,732.422,719.776
10211.9,730.593,717.957
10221.4,728.763,716.138
10230.8,726.934,714.319
10240.2,725.104,712.5
10249.6,723.275,710.681
10259,721.446,708.862
10268.5,719.616,707.043
10277.9,717.787,705.224
10287.3,715.957,703.404
10296.7,714.128,701.585
10306.1,712.299,699.766
10315.6,710.469,697.947
10325,708.64,696.128
10334.4,706.811,694.309
10343.8,704.981,692.491
10353.2,703.152,690.671
10362.6,701.322,688.852
10372.1,699.493,687.033
10381.5,697.664,685.214
10390.9,695.858,683.42
10400.3,694.278,681.859
10409.7,692.698,680.297
10419.2,691.118,678.736
10428.6,689.538,677.174
10438,687.958,675.613
10447.4,686.377,674.052
10456.8,684.797,672.49
10466.3,683.217,670.929
10475.7,681.637,669.368
10485.1,680.057,667.806
10494.5,678.477,666.245
10503.9,676.897,664.684
10513.4,675.317,663.122
10522.8,673.736,661.561
10532.2,672.156,660
10541.6,670.576,658.438
10551,668.996,656.877
10560.5,667.416,655.315
10569.9,665.836,653.754
10579.3,664.256,652.193
10588.7,662.675,650.631
10598.1,661.095,649.07
10607.5,659.587,647.572
10617,658.095,646.09
10626.4,656.604,644.609
10635.8,655.113,643.127
10645.2,653.622,641.646
10654.6,652.131,640.164
10664.1,650.64,638.682
10673.5,649.149,637.201
10682.9,647.658,635.719
10692.3,646.167,634.237
10701.7,644.676,632.755
10711.2,643.185,631.274
10720.6,641.694,629.792
10730,640.203,628.311
10739.4,638.712,626.829
10748.8,637.221,625.347
10758.3,635.73,623.865
10767.7,634.239,622.384
10777.1,632.748,620.902
10786.5,631.257,619.421
10795.9,629.766,617.939
10805.3,628.275,616.457
10814.8,626.821,615.011
10824.2,625.405,613.6
10833.6,623.989,612.188
10843,622.573,610.777
10852.4,621.157,609.366
10861.9,619.741,607.954
10871.3,618.325,606.543
10880.7,616.909,605.132
10890.1,615.493,603.72
10899.5,614.077,602.309
10909,612.661,600.898
10918.4,611.245,599.486
10927.8,609.829,598.075
10937.2,608.413,596.664
10946.6,606.997,595.252
10956.1,605.581,593.841
10965.5,604.165,592.43
10974.9,602.749,591.018
10984.3,601.333,589.607
10993.7,599.917,588.196
11003.2,598.501,586.784
11012.6,597.085,585.373
11022,595.683,583.977
11031.4,594.332,582.641
11040.8,592.982,581.305
11050.2,591.632,579.969
11059.7,590.281,578.632
11069.1,588.931,577.296
11078.5,587.58,575.96
11087.9,586.23,574.623
11097.3,584.88,573.287
11106.8,583.529,571.951
11116.2,582.179,570.614
11125.6,580.829,569.278
11135,579.478,567.942
11144.4,578.128,566.605
11153.9,576.777,565.269
11163.3,575.427,563.933
11172.7,574.077,562.596
11182.1,572.726,561.26
11191.5,571.376,559.924
11201,570.026,558.588
11210.4,568.675,557.251
11219.8,567.325,555.915
11229.2,565.974,554.578
11238.6,564.746,553.359
11248,563.528,552.151
11257.5,562.311,550.943
11266.9,561.094,549.734
11276.3,559.876,548.526
11285.7,558.659,547.317
11295.1,557.441,546.109
11304.6,556.224,544.9
11314,555.007,543.692
11323.4,553.789,542.484
11332.8,552.572,541.275
11342.2,551.354,540.067
11351.7,550.137,538.858
11361.1,548.92,537.65
11370.5,547.702,536.441
11379.9,546.485,535.233
11389.3,545.268,534.024
11398.8,544.05,532.816
11408.2,542.833,531.607
11417.6,541.615,530.399
11427,540.398,529.191
11436.4,539.181,527.982
11445.9,537.963,526.774
11455.3,536.807,525.626
11464.7,535.698,524.526
11474.1,534.589,523.425
11483.5,533.48,522.325
11492.9,532.371,521.225
11502.4,531.262,520.125
11511.8,530.154,519.024
11521.2,529.045,517.924
11530.6,527.936,516.824
11540,526.827,515.724
11549.5,525.718,514.623
11558.9,524.61,513.523
11568.3,523.501,512.423
11577.7,522.392,511.323
11587.1,521.283,510.222
11596.6,520.175,509.122
11606,519.066,508.022
11615.4,517.957,506.922
11624.8,516.848,505.821
11634.2,515.739,504.721
11643.7,514.63,503.621
11653.1,513.522,502.521
11662.5,512.413,501.421
11671.9,511.304,500.32
11681.3,510.197,499.222
11690.7,509.1,498.134
11700.2,508.004,497.047
11709.6,506.907,495.959
11719,505.811,494.871
11728.4,504.714,493.784
11737.8,503.618,492.696
11747.3,502.521,491.609
11756.7,501.425,490.521
11766.1,500.328,489.433
11775.5,499.231,488.346
11784.9,498.135,487.258
11794.4,497.038,486.171
11803.8,495.942,485.083
11813.2,494.845,483.995
11822.6,493.749,482.908
11832,492.652,481.82
11841.5,491.556,480.733
11850.9,490.459,479.645
11860.3,489.363,478.557
11869.7,488.266,477.47
11879.1,487.169,476.382
11888.6,486.073,475.295
11898,484.976,474.207
11907.4,483.99,473.226
11916.8,483.034,472.274
11926.2,482.078,471.322
11935.6,481.122,470.37
11945.1,480.166,469.419
11954.5,479.21,468.467
11963.9,478.255,467.515
11973.3,477.299,466.563
11982.7,476.343,465.611
11992.2,475.387,464.659
12001.6,474.431,463.708
12011,473.475,462.756
12020.4,472.519,461.804
12029.8,471.563,460.852
12039.3,470.607,459.9
12048.7,469.651,458.948
12058.1,468.695,457.997
12067.5,467.739,457.045
12076.9,466.783,456.093
12086.4,465.827,455.141
12095.8,464.871,454.189
12105.2,463.915,453.238
12114.6,462.96,452.286
12124,462.004,451.334
12133.4,461.048,450.382
12142.9,460.093,449.436
12152.3,459.143,448.503
12161.7,458.193,447.569
12171.1,457.242,446.636
12180.5,456.292,445.703
12190,455.341,444.769
12199.4,454.391,443.836
12208.8,453.441,442.903
12218.2,452.49,441.97
12227.6,451.54,441.036
12237.1,450.589,440.103
12246.5,449.639,439.17
12255.9,448.689,438.236
12265.3,447.738,437.303
12274.7,446.788,436.37
12284.2,445.837,435.437
12293.6,444.887,434.503
12303,443.937,433.57
12312.4,442.986,432.637
12321.8,442.036,431.704
12331.3,441.085,430.77
12340.7,440.135,429.837
12350.1,439.184,428.904
12359.5,438.234,427.97
12368.9,437.284,427.037
12378.3,436.446,426.201
12387.8,435.623,425.378
12397.2,434.8,424.555
12406.6,433.977,423.732
12416,433.153,422.909
12425.4,432.33,422.086
12434.9,431.507,421.262
12444.3,430.684,420.439
12453.7,429.861,419.616
12463.1,429.038,418.793
12472.5,428.214,417.97
12482,427.391,417.146
12491.4,426.568,416.323
12500.8,425.745,415.5
12510.2,424.922,414.677
12519.6,424.098,413.854
12529.1,423.275,413.031
12538.5,422.452,412.207
12547.9,421.629,411.384
12557.3,420.806,410.561
12566.7,419.983,409.738
12576.1,419.16,408.915
12585.6,418.336,408.092
12595,417.513,407.268
12604.4,416.69,406.445
12613.8,415.867,405.622
12623.2,415.044,404.803
12632.7,414.224,403.99
12642.1,413.403,403.178
12651.5,412.583,402.366
12660.9,411.762,401.553
12670.3,410.942,400.741
12679.8,410.121,399.929
12689.2,409.301,399.116
12698.6,408.48,398.304
12708,407.66,397.492
12717.4,406.839,396.679
12726.9,406.019,395.867
12736.3,405.198,395.055
12745.7,404.377,394.242
12755.1,403.557,393.43
12764.5,402.736,392.618
12774,401.916,391.805
12783.4,401.095,390.993
12792.8,400.275,390.181
12802.2,399.454,389.368
12811.6,398.634,388.556
12821,397.813,387.744
12830.5,396.993,386.931
12839.9,396.172,386.119
12849.3,395.351,385.307
12858.7,394.531,384.494
12868.1,393.773,383.747
12877.6,393.025,383.011
12887,392.276,382.274
12896.4,391.528,381.538
12905.8,390.779,380.801
12915.2,390.031,380.065
12924.7,389.283,379.328
12934.1,388.534,378.592
12943.5,387.786,377.855
12952.9,387.038,377.119
12962.3,386.289,376.382
12971.8,385.541,375.646
12981.2,384.793,374.909
12990.6,384.044,374.173
13000,383.296,373.436
13009.4,382.548,372.7
13018.8,381.799,371.963
13028.3,381.051,371.227
13037.7,380.303,370.49
13047.1,379.554,369.753
13056.5,378.806,369.017
13065.9,378.058,368.28
13075.4,377.309,367.544
13084.8,376.561,366.807
13094.2,375.813,366.071
13103.6,375.064,365.334
13113,374.339,364.619
13122.5,373.661,363.949
13131.9,372.983,363.279
13141.3,372.305,362.608
13150.7,371.627,361.938
13160.1,370.949,361.268
13169.6,370.271,360.597
13179,369.593,359.927
13188.4,368.916,359.257
13197.8,368.238,358.586
13207.2,367.56,357.916
13216.7,366.882,357.246
13226.1,366.204,356.575
13235.5,365.526,355.905
13244.9,364.848,355.235
13254.3,364.17,354.564
13263.7,363.492,353.894
13273.2,362.815,353.224
13282.6,362.137,352.553
13292,361.459,351.883
13301.4,360.781,351.213
13310.8,360.103,350.542
13320.3,359.425,349.872
13329.7,358.747,349.202
13339.1,358.069,348.531
13348.5,357.391,347.861
13357.9,356.713,347.191
13367.4,356.036,346.521
13376.8,355.382,345.869
13386.2,354.738,345.225
13395.6,354.095,344.582
13405,353.451,343.938
13414.5,352.807,343.294
13423.9,352.163,342.65
13433.3,351.519,342.006
13442.7,350.875,341.363
13452.1,350.232,340.719
13461.5,349.588,340.075
13471,348.944,339.431
13480.4,348.3,338.787
13489.8,347.656,338.144
13499.2,347.013,337.5
13508.6,346.369,336.856
13518.1,345.725,336.212
13527.5,345.081,335.568
13536.9,344.437,334.924
13546.3,343.794,334.281
13555.7,343.15,333.637
13565.2,342.506,332.993
13574.6,341.862,332.349
13584,341.218,331.705
13593.4,340.574,331.062
13602.8,339.931,330.418
13612.3,339.287,329.774
13621.7,338.643,329.13
13631.1,338.005,328.493
13640.5,337.411,327.91
13649.9,336.816,327.326
13659.4,336.222,326.743
13668.8,335.627,326.159
13678.2,335.033,325.576
13687.6,334.438,324.992
13697,333.844,324.409
13706.4,333.249,323.825
13715.9,332.655,323.242
13725.3,332.061,322.658
13734.7,331.466,322.075
13744.1,330.872,321.491
13753.5,330.277,320.908
13763,329.683,320.324
13772.4,329.088,319.741
13781.8,328.494,319.157
13791.2,327.9,318.574
13800.6,327.305,317.99
13810.1,326.711,317.407
13819.5,326.116,316.823
13828.9,325.522,316.24
13838.3,324.927,315.656
13847.7,324.333,315.073
13857.2,323.738,314.489
13866.6,323.144,313.906
13876,322.55,313.322
13885.4,321.955,312.739
13894.8,321.361,312.155
13904.2,320.783,311.587
13913.7,320.225,311.036
13923.1,319.667,310.485
13932.5,319.109,309.935
13941.9,318.551,309.384
13951.3,317.993,308.833
13960.8,317.435,308.283
13970.2,316.877,307.732
13979.6,316.319,307.181
13989,315.761,306.631
13998.4,315.203,306.08
14007.9,314.645,305.529
14017.3,314.087,304.979
14026.7,313.529,304.428
14036.1,312.971,303.877
14045.5,312.413,303.327
14055,311.855,302.776
14064.4,311.297,302.225
14073.8,310.739,301.675
14083.2,310.181,301.124
14092.6,309.623,300.573
14102.1,309.065,300.022
14111.5,308.507,299.472
14120.9,307.949,298.921
14130.3,307.391,298.37
14139.7,306.833,297.82
14149.1,306.275,297.269
14158.6,305.717,296.718
14168,305.159,296.168
14177.4,304.634,295.652
14186.8,304.117,295.146
14196.2,303.6,294.639
14205.7,303.083,294.133
14215.1,302.566,293.626
14224.5,302.049,293.12
14233.9,301.532,292.614
14243.3,301.015,292.107
14252.8,300.498,291.601
14262.2,299.981,291.094
14271.6,299.464,290.588
14281,298.947,290.082
14290.4,298.43,289.575
14299.9,297.914,289.069
14309.3,297.397,288.562
14318.7,296.88,288.056
14328.1,296.363,287.55
14337.5,295.846,287.043
14346.9,295.329,286.537
14356.4,294.812,286.03
14365.8,294.295,285.524
14375.2,293.778,285.018
14384.6,293.261,284.511
14394,292.744,284.005
14403.5,292.227,283.498
14412.9,291.71,282.992
14422.3,291.193,282.486
14431.7,290.676,281.979
14441.1,290.159,281.473
14450.6,289.644,280.968
14460,289.159,280.482
14469.4,288.674,279.997
14478.8,288.188,279.512
14488.2,287.703,279.027
14497.7,287.218,278.541
14507.1,286.733,278.056
14516.5,286.247,277.571
14525.9,285.762,277.085
14535.3,285.277,276.6
14544.8,284.791,276.115
14554.2,284.306,275.629
14563.6,283.821,275.144
14573,283.336,274.659
14582.4,282.85,274.174
14591.8,282.365,273.688
14601.3,281.88,273.203
14610.7,281.394,272.718
14620.1,280.909,272.232
14629.5,280.424,271.747
14638.9,279.938,271.262
14648.4,279.453,270.777
14657.8,278.968,270.291
14667.2,278.483,269.806
14676.6,277.997,269.321
14686,277.512,268.835
14695.5,277.027,268.35
14704.9,276.541,267.865
14714.3,276.056,267.379
14723.7,275.571,266.894
14733.1,275.097,266.424
14742.6,274.644,265.982
14752,274.192,265.541
14761.4,273.74,265.1
14770.8,273.288,264.658
14780.2,272.836,264.217
14789.6,272.383,263.776
14799.1,271.931,263.335
14808.5,271.479,262.893
14817.9,271.027,262.452
14827.3,270.574,262.011
14836.7,270.122,261.57
14846.2,269.67,261.128
14855.6,269.218,260.687
14865,268.766,260.246
14874.4,268.313,259.805
14883.8,267.861,259.363
14893.3,267.409,258.922
14902.7,266.957,258.481
14912.1,266.505,258.039
14921.5,266.052,257.598
14930.9,265.6,257.157
14940.4,265.148,256.716
14949.8,264.696,256.274
14959.2,264.243,255.833
14968.6,263.791,255.392
14978,263.339,254.951
14987.5,262.887,254.509
14996.9,262.435,254.068
15006.3,262.021,253.626
15015.7,261.628,253.182
15025.1,261.213,252.75
15034.5,260.782,252.325
15044,260.351,251.901
15053.4,259.92,251.476
15062.8,259.488,251.052
15072.2,259.057,250.627
15081.6,258.626,250.203
15091.1,258.195,249.779
15100.5,257.764,249.354
15109.9,257.332,248.93
15119.3,256.901,248.505
15128.7,256.47,248.081
15138.2,256.039,247.656
15147.6,255.608,247.232
15157,255.176,246.808
15166.4,254.745,246.383
15175.8,254.314,245.959
15185.3,253.883,245.534
15194.7,253.452,245.11
15204.1,253.02,244.686
15213.5,252.589,244.261
15222.9,252.158,243.837
15232.4,251.727,243.412
15241.8,251.295,242.988
15251.2,250.864,242.563
15260.6,250.433,242.139
15270,250.002,241.715
15279.4,249.571,241.29
15288.9,249.139,240.866
15298.3,248.708,240.441
15307.7,248.277,240.017
15317.1,247.872,239.618
15326.5,247.474,239.227
15336,247.077,238.837
15345.4,246.68,238.446
15354.8,246.283,238.056
15364.2,245.886,237.665
15373.6,245.489,237.275
15383.1,245.092,236.884
15392.5,244.694,236.493
15401.9,244.297,236.103
15411.3,243.9,235.712
15420.7,243.503,235.322
15430.2,243.106,234.931
15439.6,242.709,234.54
15449,242.312,234.15
15458.4,241.914,233.759
15467.8,241.517,233.369
15477.2,241.12,232.978
15486.7,240.723,232.588
15496.1,240.326,232.197
15505.5,239.929,231.806
15514.9,239.532,231.416
15524.3,239.134,231.025
15533.8,238.737,230.635
15543.2,238.34,230.244
15552.6,237.943,229.854
15562,237.546,229.463
15571.4,237.149,229.072
15580.9,236.752,228.682
15590.3,236.354,228.291
15599.7,235.957,227.901
15609.1,235.56,227.51
15618.5,235.194,227.147
15628,234.831,226.786
15637.4,234.469,226.425
15646.8,234.106,226.064
15656.2,233.743,225.703
15665.6,233.38,225.342
15675.1,233.018,224.981
15684.5,232.655,224.621
15693.9,232.292,224.26
15703.3,231.929,223.899
15712.7,231.567,223.538
15722.1,231.204,223.177
15731.6,230.841,222.817
15741,230.479,222.456
15750.4,230.116,222.095
15759.8,229.753,221.734
15769.2,229.39,221.373
15778.7,229.028,221.012
15788.1,228.665,220.652
15797.5,228.302,220.291
15806.9,227.939,219.93
15816.3,227.577,219.569
15825.8,227.214,219.208
15835.2,226.851,218.847
15844.6,226.489,218.487
15854,226.126,218.126
15863.4,225.763,217.765
15872.9,225.4,217.404
15882.3,225.038,217.043
15891.7,224.675,216.682
15901.1,224.312,216.322
15910.5,223.949,215.961
15919.9,223.587,215.6
15929.4,223.239,215.262
15938.8,222.892,214.923
15948.2,222.544,214.585
15957.6,222.197,214.247
15967,221.849,213.908
15976.5,221.502,213.57
15985.9,221.154,213.232
15995.3,220.807,212.894
16004.7,220.459,212.555
16014.1,220.112,212.217
16023.6,219.764,211.879
16033,219.417,211.541
16042.4,219.069,211.202
16051.8,218.722,210.864
16061.2,218.374,210.526
16070.7,218.027,210.187
16080.1,217.679,209.849
16089.5,217.332,209.511
16098.9,216.984,209.173
16108.3,216.637,208.834
16117.8,216.289,208.496
16127.2,215.942,208.158
16136.6,215.594,207.819
16146,215.247,207.481
16155.4,214.899,207.143
16164.8,214.552,206.805
16174.3,214.204,206.466
16183.7,213.857,206.128
16193.1,213.509,205.79
16202.5,213.162,205.452
16211.9,212.814,205.113
16221.4,212.467,204.775
16230.8,212.121,204.438
16240.2,211.795,204.116
16249.6,211.469,203.793
16259,211.143,203.471
16268.5,210.816,203.148
16277.9,210.49,202.826
16287.3,210.164,202.504
16296.7,209.838,202.181
16306.1,209.512,201.859
16315.6,209.185,201.536
16325,208.859,201.214
16334.4,208.533,200.892
16343.8,208.207,200.569
16353.2,207.881,200.247
16362.6,207.554,199.924
16372.1,207.228,199.602
16381.5,206.902,199.28
16390.9,206.576,198.957
16400.3,206.249,198.635
16409.7,205.923,198.313
16419.2,205.597,197.99
16428.6,205.271,197.668
16438,204.945,197.345
16447.4,204.618,197.023
16456.8,204.292,196.701
16466.3,203.966,196.378
16475.7,203.64,196.056
16485.1,203.314,195.733
16494.5,202.987,195.411
16503.9,202.661,195.089
16513.4,202.335,194.766
16522.8,202.009,194.444
16532.2,201.683,194.121
16541.6,201.362,193.805
16551,201.071,193.518
16560.5,200.78,193.232
16569.9,200.489,192.945
16579.3,200.198,192.658
16588.7,199.906,192.371
16598.1,199.615,192.085
16607.5,199.324,191.798
16617,199.033,191.511
16626.4,198.741,191.224
16635.8,198.45,190.938
16645.2,198.159,190.651
16654.6,197.868,190.364
16664.1,197.577,190.077
16673.5,197.285,189.791
16682.9,196.994,189.504
16692.3,196.703,189.217
16701.7,196.412,188.93
16711.2,196.12,188.644
16720.6,195.829,188.357
16730,195.538,188.07
16739.4,195.247,187.784
16748.8,194.956,187.497
16758.3,194.664,187.21
16767.7,194.373,186.923
16777.1,194.082,186.637
16786.5,193.791,186.35
16795.9,193.5,186.063
16805.3,193.208,185.776
16814.8,192.917,185.49
16824.2,192.626,185.203
16833.6,192.335,184.916
16843,192.043,184.629
16852.4,191.752,184.343
16861.9,191.461,184.056
16871.3,191.172,183.771
16880.7,190.895,183.499
16890.1,190.618,183.227
16899.5,190.341,182.955
16909,190.064,182.683
16918.4,189.787,182.411
16927.8,189.51,182.138
16937.2,189.233,181.866
16946.6,188.957,181.594
16956.1,188.68,181.322
16965.5,188.403,181.05
16974.9,188.126,180.778
16984.3,187.849,180.506
16993.7,187.572,180.233
17003.2,187.295,179.961
17012.6,187.018,179.689
17022,186.741,179.417
17031.4,186.464,179.145
17040.8,186.188,178.873
17050.2,185.911,178.601
17059.7,185.634,178.329
17069.1,185.357,178.057
17078.5,185.08,177.784
17087.9,184.803,177.512
17097.3,184.526,177.24
17106.8,184.249,176.968
17116.2,183.972,176.696
17125.6,183.696,176.424
17135,183.419,176.152
17144.4,183.142,175.88
17153.9,182.865,175.607
17163.3,182.588,175.335
17172.7,182.311,175.063
17182.1,182.034,174.791
17191.5,181.757,174.519
17201,181.482,174.248
17210.4,181.219,173.99
17219.8,180.957,173.733
17229.2,180.694,173.475
17238.6,180.431,173.217
17248,180.169,172.959
17257.5,179.906,172.701
17266.9,179.644,172.444
17276.3,179.381,172.186
17285.7,179.119,171.928
17295.1,178.856,171.67
17304.6,178.593,171.412
17314,178.331,171.155
17323.4,178.068,170.897
17332.8,177.806,170.639
17342.2,177.543,170.381
17351.7,177.281,170.123
17361.1,177.018,169.866
17370.5,176.755,169.608
17379.9,176.493,169.35
17389.3,176.23,169.092
17398.8,175.968,168.834
17408.2,175.705,168.577
17417.6,175.443,168.319
17427,175.18,168.061
17436.4,174.917,167.803
17445.8,174.655,167.545
17455.3,174.392,167.288
17464.7,174.13,167.03
17474.1,173.867,166.772
17483.5,173.605,166.514
17492.9,173.342,166.256
17502.4,173.079,165.999
17511.8,172.817,165.741
17521.2,172.554,165.483
17530.6,172.294,165.227
17540,172.059,164.997
17549.5,171.824,164.766
17558.9,171.589,164.536
17568.3,171.354,164.305
17577.7,171.119,164.075
17587.1,170.884,163.845
17596.6,170.649,163.614
17606,170.414,163.384
17615.4,170.179,163.153
17624.8,169.944,162.923
17634.2,169.709,162.693
17643.7,169.475,162.462
17653.1,169.24,162.232
17662.5,169.005,162.001
17671.9,168.77,161.771
17681.3,168.535,161.541
17690.7,168.3,161.31
17700.2,168.065,161.08
17709.6,167.83,160.849
17719,167.595,160.619
17728.4,167.36,160.389
17737.8,167.125,160.158
17747.3,166.891,159.928
17756.7,166.656,159.697
17766.1,166.421,159.467
17775.5,166.186,159.236
17784.9,165.951,159.006
17794.4,165.716,158.776
17803.8,165.481,158.545
17813.2,165.246,158.315
17822.6,165.011,158.084
17832,164.776,157.854
17841.5,164.541,157.624
17850.9,164.307,157.393
17860.3,164.072,157.163
17869.7,163.837,156.932
17879.1,163.602,156.702
17888.6,163.378,156.482
17898,163.156,156.263
17907.4,162.933,156.044
17916.8,162.711,155.825
17926.2,162.488,155.607
17935.6,162.266,155.388
17945.1,162.043,155.169
17954.5,161.82,154.95
17963.9,161.598,154.731
17973.3,161.375,154.512
17982.7,161.153,154.293
17992.2,160.93,154.074
18001.6,160.708,153.856
18011,160.485,153.637
18020.4,160.263,153.418
18029.8,160.04,153.199
18039.3,159.818,152.98
18048.7,159.595,152.761
18058.1,159.373,152.542
18067.5,159.15,152.323
18076.9,158.927,152.104
18086.4,158.705,151.886
18095.8,158.482,151.667
18105.2,158.26,151.448
18114.6,158.037,151.229
18124,157.815,151.01
18133.4,157.592,150.791
18142.9,157.37,150.572
18152.3,157.147,150.354
18161.7,156.925,150.135
18171.1,156.702,149.916
18180.5,156.48,149.697
18190,156.257,149.478
18199.4,156.035,149.259
18208.8,155.812,149.04
18218.2,155.59,148.821
18227.6,155.367,148.603
18237.1,155.153,148.393
18246.5,154.942,148.186
18255.9,154.73,147.979
18265.3,154.519,147.772
18274.7,154.308,147.566
18284.2,154.097,147.359
18293.6,153.885,147.152
18303,153.674,146.945
18312.4,153.463,146.739
18321.8,153.251,146.532
18331.3,153.04,146.325
18340.7,152.829,146.118
18350.1,152.618,145.911
18359.5,152.406,145.705
18368.9,152.195,145.498
18378.3,151.984,145.291
18387.8,151.772,145.084
18397.2,151.561,144.877
18406.6,151.35,144.671
18416,151.139,144.464
18425.4,150.927,144.257
18434.9,150.716,144.05
18444.3,150.505,143.844
18453.7,150.294,143.637
18463.1,150.082,143.43
18472.5,149.871,143.223
18482,149.66,143.017
18491.4,149.448,142.81
18500.8,149.237,142.603
18510.2,149.026,142.396
18519.6,148.815,142.189
18529.1,148.603,141.983
18538.5,148.392,141.776
18547.9,148.181,141.569
18557.3,147.969,141.362
18566.7,147.758,141.156
18576.1,147.547,140.949
18585.6,147.348,140.754
18595,147.159,140.569
18604.4,146.969,140.383
18613.8,146.779,140.197
18623.2,146.589,140.011
18632.7,146.4,139.826
18642.1,146.21,139.64
18651.5,146.02,139.454
18660.9,145.83,139.268
18670.3,145.641,139.083
18679.8,145.451,138.897
18689.2,145.261,138.711
18698.6,145.071,138.525
18708,144.882,138.34
18717.4,144.692,138.154
18726.9,144.502,137.968
18736.3,144.312,137.782
18745.7,144.123,137.597
18755.1,143.933,137.411
18764.5,143.743,137.225
18774,143.553,137.039
18783.4,143.364,136.854
18792.8,143.174,136.668
18802.2,142.984,136.482
18811.6,142.794,136.296
18821,142.605,136.111
18830.5,142.415,135.925
18839.9,142.225,135.739
18849.3,142.035,135.553
18858.7,141.846,135.368
18868.1,141.656,135.182
18877.6,141.466,134.996
18887,141.276,134.81
18896.4,141.087,134.624
18905.8,140.897,134.439
18915.2,140.707,134.253
18924.7,140.517,134.067
18934.1,140.328,133.881
18943.5,140.138,133.696
18952.9,139.951,133.513
18962.3,139.771,133.337
18971.8,139.591,133.161
18981.2,139.411,132.984
18990.6,139.231,132.808
19000,139.05,132.632
19009.4,138.87,132.456
19018.8,138.69,132.28
19028.3,138.51,132.104
19037.7,138.33,131.927
19047.1,138.15,131.751
19056.5,137.969,131.575
19065.9,137.789,131.399
19075.4,137.609,131.223
19084.8,137.429,131.047
19094.2,137.249,130.87
19103.6,137.069,130.694
19113,136.888,130.518
19122.5,136.708,130.342
19131.9,136.528,130.166
19141.3,136.348,129.989
19150.7,136.168,129.813
19160.1,135.988,129.637
19169.6,135.807,129.461
19179,135.627,129.285
19188.4,135.447,129.109
19197.8,135.267,128.932
19207.2,135.087,128.756
19216.7,134.907,128.58
19226.1,134.726,128.404
19235.5,134.546,128.228
19244.9,134.366,128.052
19254.3,134.186,127.875
19263.7,134.006,127.699
19273.2,133.826,127.523
19282.6,133.645,127.347
19292,133.465,127.171
19301.4,133.285,126.995
19310.8,133.105,126.818
19320.3,132.925,126.642
19329.7,132.754,126.475
19339.1,132.583,126.308
19348.5,132.412,126.141
19357.9,132.242,125.974
19367.4,132.071,125.807
19376.8,131.9,125.64
19386.2,131.729,125.473
19395.6,131.558,125.305
19405,131.387,125.138
19414.5,131.217,124.971
19423.9,131.046,124.804
19433.3,130.875,124.637
19442.7,130.704,124.47
19452.1,130.533,124.303
19461.6,130.362,124.136
19471,130.191,123.968
19480.4,130.021,123.801
19489.8,129.85,123.634
19499.2,129.679,123.467
19508.6,129.508,123.3
19518.1,129.337,123.133
19527.5,129.166,122.966
19536.9,128.995,122.799
19546.3,128.825,122.631
19555.7,128.654,122.464
19565.2,128.483,122.297
19574.6,128.312,122.13
19584,128.141,121.963
19593.4,127.97,121.796
19602.8,127.8,121.629
19612.3,127.629,121.462
19621.7,127.458,121.294
19631.1,127.287,121.127
19640.5,127.116,120.96
19649.9,126.945,120.793
19659.4,126.774,120.626
19668.8,126.604,120.459
19678.2,126.433,120.292
19687.6,126.262,120.125
19697,126.103,119.969
19706.4,125.949,119.818
19715.9,125.795,119.667
19725.3,125.64,119.516
19734.7,125.486,119.365
19744.1,125.331,119.213
19753.5,125.177,119.062
19763,125.023,118.911
19772.4,124.868,118.76
19781.8,124.714,118.609
19791.2,124.56,118.457
19800.6,124.405,118.306
19810.1,124.251,118.155
19819.5,124.097,118.004
19828.9,123.942,117.853
19838.3,123.788,117.701
19847.7,123.633,117.55
19857.2,123.479,117.399
19866.6,123.325,117.248
19876,123.17,117.097
19885.4,123.016,116.946
19894.8,122.862,116.794
19904.2,122.707,116.643
19913.7,122.553,116.492
19923.1,122.398,116.341
19932.5,122.244,116.19
19941.9,122.09,116.038
19951.3,121.935,115.887
19960.8,121.781,115.736
19970.2,121.627,115.585
19979.6,121.472,115.434
19989,121.318,115.282
19998.4,121.164,115.131
20007.9,121.012,114.983
20017.3,120.86,114.835
20026.7,120.709,114.688
20036.1,120.557,114.54
20045.5,120.406,114.392
20055,120.255,114.244
20064.4,120.103,114.097
20073.8,119.952,113.949
20083.2,119.802,113.802
20092.6,119.653,113.658
20102.1,119.505,113.514
20111.5,119.357,113.369
20120.9,119.209,113.225
20130.3,119.061,113.08
20139.7,118.912,112.936
20149.1,118.764,112.792
20158.6,118.616,112.647
20168,118.468,112.503
20177.4,118.32,112.358
20186.8,118.171,112.214
20196.2,118.023,112.069
20205.7,117.875,111.925
20215.1,117.727,111.781
20224.5,117.579,111.636
20233.9,117.43,111.492
20243.3,117.282,111.347
20252.8,117.134,111.203
20262.2,116.986,111.059
20271.6,116.838,110.914
20281,116.689,110.77
20290.4,116.541,110.625
20299.9,116.393,110.481
20309.3,116.245,110.336
20318.7,116.097,110.192
20328.1,115.948,110.048
20337.5,115.8,109.903
20346.9,115.652,109.759
20356.4,115.504,109.614
20365.8,115.355,109.47
20375.2,115.207,109.326
20384.6,115.059,109.181
20394,114.911,109.037
20403.5,114.763,108.892
20412.9,114.615,108.748
20422.3,114.466,108.603
20431.7,114.318,108.459
20441.1,114.17,108.315
20450.6,114.022,108.17
20460,113.873,108.026
20469.4,113.725,107.881
20478.8,113.588,107.747
20488.2,113.451,107.614
20497.7,113.315,107.48
20507.1,113.178,107.347
20516.5,113.041,107.214
20525.9,112.905,107.08
20535.3,112.768,106.947
20544.8,112.632,106.813
20554.2,112.495,106.68
20563.6,112.358,106.546
20573,112.222,106.413
20582.4,112.085,106.28
20591.8,111.948,106.146
20601.3,111.812,106.013
20610.7,111.675,105.879
20620.1,111.539,105.746
20629.5,111.402,105.613
20638.9,111.265,105.479
20648.4,111.129,105.346
20657.8,110.992,105.212
20667.2,110.855,105.079
20676.6,110.719,104.945
20686,110.582,104.812
20695.5,110.446,104.679
20704.9,110.309,104.545
20714.3,110.172,104.412
20723.7,110.036,104.278
20733.1,109.899,104.145
20742.6,109.763,104.012
20752,109.626,103.878
20761.4,109.489,103.745
20770.8,109.353,103.611
20780.2,109.216,103.478
20789.7,109.079,103.344
20799.1,108.943,103.211
20808.5,108.806,103.078
20817.9,108.67,102.944
20827.3,108.533,102.811
20836.7,108.396,102.677
20846.2,108.26,102.544
20855.6,108.123,102.41
20865,107.986,102.277
20874.4,107.855,102.148
20883.8,107.728,102.025
20893.3,107.601,101.902
20902.7,107.475,101.779
20912.1,107.348,101.656
20921.5,107.222,101.532
20930.9,107.095,101.409
20940.4,106.969,101.286
20949.8,106.842,101.163
20959.2,106.715,101.04
20968.6,106.589,100.916
20978,106.462,100.793
20987.5,106.336,100.67
20996.9,106.209,100.547
21006.3,106.083,100.424
21015.7,105.956,100.3
21025.1,105.83,100.177
21034.5,105.703,100.054
21044,105.576,99.9308
21053.4,105.45,99.8076
21062.8,105.323,99.6844
21072.2,105.197,99.5612
21081.6,105.07,99.438
21091.1,104.944,99.3147
21100.5,104.817,99.1916
21109.9,104.69,99.0683
21119.3,104.564,98.9452
21128.7,104.437,98.8219
21138.2,104.311,98.6988
21147.6,104.184,98.5755
21157,104.058,98.4523
21166.4,103.931,98.3291
21175.8,103.805,98.2059
21185.3,103.678,98.0827
21194.7,103.551,97.9595
21204.1,103.425,97.8363
21213.5,103.298,97.7131
21222.9,103.172,97.5899
21232.3,103.045,97.4667
21241.8,102.919,97.3435
21251.2,102.792,97.2203
21260.6,102.665,97.0971
21270,102.539,96.9739
21279.4,102.412,96.8507
21288.9,102.295,96.7362
21298.3,102.177,96.6223
21307.7,102.06,96.5084
21317.1,101.943,96.3944
21326.5,101.826,96.2805
21336,101.708,96.1665
21345.4,101.591,96.0526
21354.8,101.474,95.9387
21364.2,101.357,95.8247
21373.6,101.24,95.7108
21383.1,101.122,95.5969
21392.5,101.005,95.4829
21401.9,100.888,95.369
21411.3,100.771,95.255
21420.7,100.653,95.1411
21430.2,100.536,95.0272
21439.6,100.419,94.9132
21449,100.302,94.7993
21458.4,100.185,94.6853
21467.8,100.067,94.5714
21477.2,99.9501,94.4575
21486.7,99.8329,94.3435
21496.1,99.7157,94.2296
21505.5,99.5985,94.1156
21514.9,99.4813,94.0017
21524.3,99.364,93.8878
21533.8,99.2468,93.7739
21543.2,99.1296,93.6599
21552.6,99.0124,93.546
21562,98.8951,93.432
21571.4,98.7779,93.3181
21580.9,98.6607,93.2042
21590.3,98.5435,93.0902
21599.7,98.4263,92.9763
21609.1,98.3091,92.8623
21618.5,98.1918,92.7484
21628,98.0746,92.6344
21637.4,97.9574,92.5205
21646.8,97.8401,92.4066
21656.2,97.7229,92.2926
21665.6,97.6057,92.1787
21675.1,97.4885,92.0648
21684.5,97.3713,91.9508
21693.9,97.2541,91.8369
21703.3,97.139,91.7251
21712.7,97.0282,91.6172
21722.1,96.9173,91.5094
21731.6,96.8064,91.4016
21741,96.6955,91.2937
21750.4,96.5846,91.1859
21759.8,96.4737,91.078
21769.2,96.3628,90.9702
21778.7,96.2519,90.8624
21788.1,96.141,90.7545
21797.5,96.0302,90.6467
21806.9,95.9193,90.5388
21816.3,95.8084,90.431
21825.8,95.6975,90.3231
21835.2,95.5866,90.2153
21844.6,95.4757,90.1075
21854,95.3648,89.9996
21863.4,95.2539,89.8918
21872.9,95.143,89.7839
21882.3,95.0321,89.6761
21891.7,94.9212,89.5682
21901.1,94.8103,89.4604
21910.5,94.6995,89.3525
21919.9,94.5885,89.2447
21929.4,94.4777,89.1369
21938.8,94.3668,89.029
21948.2,94.2559,88.9212
21957.6,94.145,88.8133
21967,94.0341,88.7055
21976.5,93.9232,88.5976
21985.9,93.8123,88.4898
21995.3,93.7015,88.382
22004.7,93.5905,88.2741
22014.1,93.4796,88.1663
22023.6,93.3688,88.0584
22033,93.2579,87.9506
22042.4,93.147,87.8427
22051.8,93.0361,87.7349
22061.2,92.9252,87.6271
22070.7,92.8143,87.5192
22080.1,92.7034,87.4114
22089.5,92.5925,87.3035
22098.9,92.4816,87.1957
22108.3,92.3708,87.0878
22117.8,92.2599,86.98
22127.2,92.1551,86.8781
22136.6,92.0523,86.778
22146,91.9495,86.6779
22155.4,91.8467,86.5779
22164.8,91.7439,86.4778
22174.3,91.641,86.3777
22183.7,91.5382,86.2776
22193.1,91.4354,86.1776
22202.5,91.3326,86.0775
22211.9,91.2298,85.9774
22221.4,91.1269,85.8774
22230.8,91.0241,85.7773
22240.2,90.9213,85.6772
22249.6,90.8185,85.5772
22259,90.7157,85.4771
22268.5,90.6129,85.377
22277.9,90.51,85.277
22287.3,90.4072,85.1769
22296.7,90.3044,85.0768
22306.1,90.2016,84.9768
22315.6,90.0988,84.8767
22325,89.996,84.7766
22334.4,89.8932,84.6766
22343.8,89.7903,84.5765
22353.2,89.6875,84.4764
22362.6,89.5847,84.3764
22372.1,89.4819,84.2763
22381.5,89.3791,84.1762
22390.9,89.2763,84.0762
22400.3,89.1735,83.9761
22409.7,89.0706,83.876
22419.2,88.9678,83.776
22428.6,88.865,83.6759
22438,88.7622,83.5758
22447.4,88.6594,83.4757
22456.8,88.5565,83.3757
22466.3,88.4537,83.2756
22475.7,88.3509,83.1755
22485.1,88.2481,83.0755
22494.5,88.1453,82.9754
22503.9,88.0425,82.8753
22513.4,87.9396,82.7753
22522.8,87.8368,82.6752
22532.2,87.734,82.5751
22541.6,87.6312,82.475
22551,87.5292,82.3758
22560.5,87.4339,82.2834
22569.9,87.3385,82.191
22579.3,87.2432,82.0986
22588.7,87.1479,82.0061
22598.1,87.0525,81.9137
22607.5,86.9572,81.8213
22617,86.8619,81.7289
22626.4,86.7665,81.6364
22635.8,86.6712,81.544
22645.2,86.5759,81.4516
22654.6,86.4806,81.3592
22664.1,86.3852,81.2668
22673.5,86.2899,81.1743
22682.9,86.1946,81.0819
22692.3,86.0992,80.9895
22701.7,86.0039,80.8971
22711.2,85.9086,80.8046
22720.6,85.8132,80.7122
22730,85.7179,80.6198
22739.4,85.6225,80.5274
22748.8,85.5272,80.4349
22758.3,85.4319,80.3425
22767.7,85.3366,80.2501
22777.1,85.2412,80.1577
22786.5,85.1459,80.0653
22795.9,85.0506,79.9728
22805.3,84.9552,79.8804
22814.8,84.8599,79.788
22824.2,84.7646,79.6955
22833.6,84.6692,79.6031
22843,84.5739,79.5107
22852.4,84.4786,79.4183
22861.9,84.3832,79.3259
22871.3,84.2879,79.2334
22880.7,84.1926,79.141
22890.1,84.0972,79.0486
22899.5,84.0019,78.9562
22909,83.9066,78.8637
22918.4,83.8113,78.7713
22927.8,83.7159,78.6789
22937.2,83.6206,78.5865
22946.6,83.5253,78.4941
22956.1,83.4299,78.4016
22965.5,83.3346,78.3092
22974.9,83.2393,78.2168
22984.3,83.1439,78.1244
22993.7,83.0513,78.0347
23003.2,82.9629,77.9491
23012.6,82.8745,77.8635
23022,82.7861,77.778
23031.4,82.6977,77.6924
23040.8,82.6093,77.6069
23050.2,82.5209,77.5213
23059.7,82.4325,77.4358
23069.1,82.3441,77.3502
23078.5,82.2557,77.2647
23087.9,82.1673,77.1791
23097.3,82.0789,77.0936
23106.8,81.9905,77.008
23116.2,81.9021,76.9224
23125.6,81.8137,76.8369
23135,81.7253,76.7513
23144.4,81.6369,76.6658
23153.9,81.5485,76.5802
23163.3,81.4601,76.4947
23172.7,81.3717,76.4091
23182.1,81.2833,76.3236
23191.5,81.1949,76.238
23201,81.1065,76.1524
23210.4,81.0181,76.0669
23219.8,80.9297,75.9813
23229.2,80.8413,75.8958
23238.6,80.7529,75.8102
23248,80.6645,75.7247
23257.5,80.5761,75.6391
23266.9,80.4877,75.5536
23276.3,80.3993,75.468
23285.7,80.3109,75.3824
23295.1,80.2225,75.2969
23304.6,80.1341,75.2113
23314,80.0457,75.1258
23323.4,79.9573,75.0402
23332.8,79.8689,74.9547
23342.2,79.7805,74.8691
23351.7,79.6921,74.7835
23361.1,79.6037,74.698
23370.5,79.5153,74.6124
23379.9,79.4269,74.5269
23389.3,79.3385,74.4413
23398.8,79.2501,74.3558
23408.2,79.1617,74.2702
23417.6,79.0733,74.1847
23427,78.9849,74.0991
23436.4,78.8965,74.0135
23445.8,78.8121,73.9318
23455.3,78.7301,73.8524
23464.7,78.6481,73.773
23474.1,78.5662,73.6936
23483.5,78.4842,73.6142
23492.9,78.4022,73.5348
23502.4,78.3202,73.4553
23511.8,78.2382,73.3759
23521.2,78.1562,73.2965
23530.6,78.0743,73.2171
23540,77.9923,73.1377
23549.5,77.9103,73.0582
23558.9,77.8283,72.9788
23568.3,77.7463,72.8994
23577.7,77.6644,72.82
23587.1,77.5824,72.7406
23596.6,77.5004,72.6612
23606,77.4184,72.5818
23615.4,77.3364,72.5023
23624.8,77.2544,72.4229
23634.2,77.1724,72.3435
23643.7,77.0905,72.2641
23653.1,77.0085,72.1847
23662.5,76.9265,72.1053
23671.9,76.8445,72.0259
23681.3,76.7625,71.9464
23690.7,76.6806,71.867
23700.2,76.5986,71.7876
23709.6,76.5166,71.7082
23719,76.4346,71.6288
23728.4,76.3526,71.5494
23737.8,76.2706,71.47
23747.3,76.1887,71.3905
23756.7,76.1067,71.3111
23766.1,76.0247,71.2317
23775.5,75.9427,71.1523
23784.9,75.8607,71.0729
23794.4,75.7787,70.9935
23803.8,75.6968,70.9141
23813.2,75.6148,70.8346
23822.6,75.5328,70.7552
23832,75.4508,70.6758
23841.5,75.3688,70.5964
23850.9,75.2868,70.517
23860.3,75.2048,70.4376
23869.7,75.1229,70.3582
23879.1,75.0409,70.2787
23888.6,74.9589,70.1993
23898,74.8769,70.1199
23907.4,74.7996,70.0451
23916.8,74.7235,69.9716
23926.2,74.6475,69.898
23935.6,74.5714,69.8245
23945.1,74.4954,69.751
23954.5,74.4194,69.6774
23963.9,74.3433,69.6039
23973.3,74.2673,69.5304
23982.7,74.1912,69.4568
23992.2,74.1152,69.3833
24001.6,74.0391,69.3098
24011,73.9631,69.2362
24020.4,73.887,69.1627
24029.8,73.811,69.0892
24039.3,73.7349,69.0156
24048.7,73.6589,68.9421
24058.1,73.5828,68.8686
24067.5,73.5068,68.795
24076.9,73.4307,68.7215
24086.4,73.3547,68.6479
24095.8,73.2786,68.5744
24105.2,73.2026,68.5009
24114.6,73.1265,68.4273
24124,73.0505,68.3538
24133.4,72.9744,68.2803
24142.9,72.8984,68.2067
24152.3,72.8223,68.1332
24161.7,72.7463,68.0597
24171.1,72.6702,67.9861
24180.5,72.5942,67.9126
24190,72.5181,67.8391
24199.4,72.4421,67.7655
24208.8,72.366,67.692
24218.2,72.29,67.6185
24227.6,72.2139,67.5449
24237.1,72.1379,67.4714
24246.5,72.0618,67.3979
24255.9,71.9858,67.3243
24265.3,71.9097,67.2508
24274.7,71.8337,67.1773
24284.2,71.7577,67.1037
24293.6,71.6816,67.0302
24303,71.6055,66.9566
24312.4,71.5295,66.8831
24321.8,71.4534,66.8096
24331.2,71.3774,66.7361
24340.7,71.3014,66.6625
24350.1,71.2253,66.589
24359.5,71.1493,66.5154
24368.9,71.0732,66.4419
24378.3,71.002,66.373
24387.8,70.9314,66.3047
24397.2,70.8609,66.2364
24406.6,70.7903,66.1681
24416,70.7197,66.0998
24425.4,70.6492,66.0314
24434.9,70.5786,65.9631
24444.3,70.508,65.8948
24453.7,70.4375,65.8265
24463.1,70.3669,65.7582
24472.5,70.2963,65.6899
24482,70.2258,65.6216
24491.4,70.1552,65.5533
24500.8,70.0846,65.485
24510.2,70.0141,65.4167
24519.6,69.9435,65.3483
24529.1,69.8729,65.28
24538.5,69.8024,65.2117
24547.9,69.7318,65.1434
24557.3,69.6612,65.0751
24566.7,69.5907,65.0068
24576.1,69.5201,64.9385
24585.6,69.4495,64.8702
24595,69.379,64.8019
24604.4,69.3084,64.7336
24613.8,69.2378,64.6653
24623.2,69.1673,64.5969
24632.7,69.0967,64.5286
24642.1,69.0261,64.4603
24651.5,68.9556,64.392
24660.9,68.885,64.3237
24670.3,68.8144,64.2554
24679.8,68.7439,64.1871
24689.2,68.6733,64.1188
24698.6,68.6027,64.0504
24708,68.5322,63.9821
24717.4,68.4616,63.9138
24726.9,68.391,63.8455
24736.3,68.3205,63.7772
24745.7,68.2499,63.7089
24755.1,68.1793,63.6406
24764.5,68.1088,63.5723
24774,68.0382,63.504
24783.4,67.9676,63.4356
24792.8,67.8971,63.3674
24802.2,67.8265,63.299
24811.6,67.7559,63.2307
24821,67.6854,63.1624
24830.5,67.6148,63.0941
24839.9,67.5442,63.0258
24849.3,67.4737,62.9575
24858.7,67.4063,62.8926
24868.1,67.3393,62.828
24877.6,67.2722,62.7634
24887,67.2051,62.6987
24896.4,67.138,62.6341
24905.8,67.0709,62.5695
24915.2,67.0039,62.5049
24924.7,66.9368,62.4403
24934.1,66.8697,62.3756
24943.5,66.8026,62.311
24952.9,66.7355,62.2464
24962.3,66.6684,62.1818
24971.8,66.6014,62.1172
24981.2,66.5343,62.0526
24990.6,66.4672,61.9879
25000,66.4001,61.9233
25009.4,66.3331,61.8587
25018.8,66.266,61.7941
25028.3,66.1989,61.7295
25037.7,66.1318,61.6649
25047.1,66.0647,61.6002
25056.5,65.9977,61.5356
25065.9,65.9306,61.471
25075.4,65.8635,61.4064
25084.8,65.7964,61.3418
25094.2,65.7293,61.2771
25103.6,65.6623,61.2125
25113,65.5952,61.1479
25122.5,65.5281,61.0833
25131.9,65.461,61.0187
25141.3,65.394,60.9541
25150.7,65.3269,60.8894
25160.1,65.2598,60.8248
25169.6,65.1927,60.7602
25179,65.1256,60.6956
25188.4,65.0585,60.631
25197.8,64.9915,60.5664
25207.2,64.9244,60.5017
25216.7,64.8573,60.4371
25226.1,64.7902,60.3725
25235.5,64.7231,60.3079
25244.9,64.6561,60.2432
25254.3,64.589,60.1786
25263.7,64.5219,60.114
25273.2,64.4548,60.0494
25282.6,64.3877,59.9848
25292,64.3207,59.9202
25301.4,64.2536,59.8555
25310.8,64.1865,59.7909
25320.3,64.1194,59.7263
25329.7,64.0524,59.6617
25339.1,63.9911,59.6028
25348.5,63.93,59.5441
25357.9,63.869,59.4854
25367.4,63.808,59.4268
25376.8,63.7469,59.3681
25386.2,63.6859,59.3094
25395.6,63.6248,59.2507
25405,63.5638,59.192
25414.5,63.5027,59.1333
25423.9,63.4417,59.0746
25433.3,63.3806,59.016
25442.7,63.3196,58.9573
25452.1,63.2585,58.8986
25461.5,63.1975,58.8399
25471,63.1364,58.7812
25480.4,63.0754,58.7225
25489.8,63.0143,58.6638
25499.2,62.9533,58.6052
25508.6,62.8922,58.5465
25518.1,62.8312,58.4878
25527.5,62.7701,58.4291
25536.9,62.7091,58.3704
25546.3,62.648,58.3117
25555.7,62.587,58.253
25565.2,62.5259,58.1944
25574.6,62.4649,58.1357
25584,62.4038,58.077
25593.4,62.3428,58.0183
25602.8,62.2817,57.9596
25612.3,62.2207,57.9009
25621.7,62.1596,57.8422
25631.1,62.0986,57.7836
25640.5,62.0375,57.7249
25649.9,61.9765,57.6662
25659.4,61.9155,57.6075
25668.8,61.8544,57.5488
25678.2,61.7934,57.4901
25687.6,61.7323,57.4314
25697,61.6713,57.3728
25706.4,61.6102,57.3141
25715.9,61.5492,57.2554
25725.3,61.4881,57.1967
25734.7,61.4271,57.138
25744.1,61.366,57.0793
25753.5,61.305,57.0207
25763,61.2439,56.962
25772.4,61.1829,56.9033
25781.8,61.1218,56.8446
25791.2,61.0608,56.7859
25800.6,60.9997,56.7272
25810.1,60.9387,56.6685
25819.5,60.8776,56.6098
25828.9,60.8166,56.5512
25838.3,60.7583,56.4951
25847.7,60.7004,56.4394
25857.2,60.6425,56.3836
25866.6,60.5846,56.3279
25876,60.5267,56.2722
25885.4,60.4688,56.2164
25894.8,60.4109,56.1607
25904.2,60.353,56.105
25913.7,60.2951,56.0492
25923.1,60.2372,55.9935
25932.5,60.1793,55.9378
25941.9,60.1214,55.8821
25951.3,60.0635,55.8263
25960.8,60.0056,55.7706
25970.2,59.9477,55.7149
25979.6,59.8899,55.6591
25989,59.832,55.6034
25998.4,59.7741,55.5477
26007.9,59.7162,55.4919
26017.3,59.6583,55.4362
26026.7,59.6004,55.3805
26036.1,59.5424,55.3247
26045.5,59.4846,55.269
26055,59.4267,55.2133
26064.4,59.3688,55.1575
26073.8,59.3109,55.1018
26083.2,59.253,55.0461
26092.6,59.1951,54.9903
26102.1,59.1372,54.9346
26111.5,59.0793,54.8789
26120.9,59.0214,54.8232
26130.3,58.9635,54.7674
26139.7,58.9056,54.7117
26149.1,58.8477,54.656
26158.6,58.7898,54.6002
26168,58.7319,54.5445
26177.4,58.674,54.4888
26186.8,58.6161,54.433
26196.2,58.5582,54.3773
26205.7,58.5003,54.3216
26215.1,58.4424,54.2658
26224.5,58.3845,54.2101
26233.9,58.3266,54.1544
26243.3,58.2687,54.0987
26252.8,58.2108,54.0429
26262.2,58.1529,53.9872
26271.6,58.095,53.9315
26281,58.0371,53.8757
26290.4,57.9792,53.82
26299.9,57.9213,53.7643
26309.3,57.8634,53.7085
26318.7,57.8055,53.6528
26328.1,57.7476,53.5971
26337.5,57.6939,53.5453
26347,57.6413,53.4946
26356.4,57.5886,53.4438
26365.8,57.536,53.3931
26375.2,57.4834,53.3423
26384.6,57.4307,53.2916
26394,57.3781,53.2408
26403.5,57.3254,53.1901
26412.9,57.2728,53.1393
26422.3,57.2202,53.0886
26431.7,57.1675,53.0378
26441.1,57.1149,52.9871
26450.6,57.0622,52.9363
26460,57.0096,52.8856
26469.4,56.957,52.8349
26478.8,56.9043,52.7841
26488.2,56.8517,52.7334
26497.7,56.799,52.6826
26507.1,56.7464,52.6319
26516.5,56.6938,52.5811
26525.9,56.6411,52.5304
26535.3,56.5885,52.4796
26544.8,56.5358,52.4289
26554.2,56.4832,52.3781
26563.6,56.4306,52.3274
26573,56.3779,52.2766
26582.4,56.3253,52.2259
26591.8,56.2726,52.1751
26601.3,56.22,52.1244
26610.7,56.1673,52.0736
26620.1,56.1147,52.0229
26629.5,56.0621,51.9721
26638.9,56.0094,51.9214
26648.4,55.9568,51.8706
26657.8,55.9041,51.8199
26667.2,55.8515,51.7691
26676.6,55.7989,51.7184
26686,55.7462,51.6677
26695.5,55.6936,51.6169
26704.9,55.6409,51.5662
26714.3,55.5883,51.5154
26723.7,55.5357,51.4647
26733.1,55.483,51.4139
26742.6,55.4304,51.3632
26752,55.3777,51.3124
26761.4,55.3251,51.2617
26770.8,55.2724,51.2109
26780.2,55.2198,51.1602
26789.6,55.1672,51.1094
26799.1,55.1145,51.0587
26808.5,55.0619,51.0079
26817.9,55.0092,50.9572
26827.3,54.9566,50.9064
26836.7,54.904,50.8557
26846.2,54.8513,50.805
26855.6,54.8001,50.7559
26865,54.75,50.708
26874.4,54.6998,50.6601
26883.8,54.6496,50.6122
26893.3,54.5994,50.5642
26902.7,54.5492,50.5163
26912.1,54.4991,50.4684
26921.5,54.4489,50.4205
26930.9,54.3987,50.3726
26940.4,54.3485,50.3247
26949.8,54.2983,50.2768
26959.2,54.2482,50.2289
26968.6,54.198,50.181
26978,54.1478,50.1331
26987.5,54.0976,50.0852
26996.9,54.0474,50.0373
27006.3,53.9973,49.9894
27015.7,53.9471,49.9415
27025.1,53.8969,49.8936
27034.5,53.8467,49.8456
27044,53.7965,49.7977
27053.4,53.7464,49.7498
27062.8,53.6962,49.7019
27072.2,53.646,49.654
27081.6,53.5958,49.6061
27091.1,53.5457,49.5582
27100.5,53.4955,49.5103
27109.9,53.4453,49.4624
27119.3,53.3951,49.4145
27128.7,53.3449,49.3666
27138.2,53.2947,49.3187
27147.6,53.2446,49.2708
27157,53.1944,49.2228
27166.4,53.1442,49.1749
27175.8,53.094,49.127
27185.3,53.0439,49.0791
27194.7,52.9937,49.0312
27204.1,52.9435,48.9833
27213.5,52.8933,48.9354
27222.9,52.8431,48.8875
27232.3,52.793,48.8396
27241.8,52.7428,48.7917
27251.2,52.6926,48.7438
27260.6,52.6424,48.6959
27270,52.5922,48.648
27279.4,52.5421,48.6001
27288.9,52.4919,48.5522
27298.3,52.4417,48.5042
27307.7,52.3915,48.4563
27317.1,52.3413,48.4084
27326.5,52.2912,48.3605
27336,52.241,48.3126
27345.4,52.1908,48.2647
27354.8,52.1406,48.2168
27364.2,52.0905,48.1689
27373.6,52.042,48.1225
27383.1,51.9962,48.0786
27392.5,51.9504,48.0346
27401.9,51.9047,47.9907
27411.3,51.8589,47.9467
27420.7,51.8131,47.9028
27430.2,51.7674,47.8588
27439.6,51.7216,47.8149
27449,51.6758,47.771
27458.4,51.6301,47.727
27467.8,51.5843,47.6831
27477.2,51.5385,47.6391
27486.7,51.4927,47.5952
27496.1,51.447,47.5512
27505.5,51.4012,47.5073
27514.9,51.3554,47.4633
27524.3,51.3097,47.4194
27533.8,51.2639,47.3755
27543.2,51.2181,47.3315
27552.6,51.1724,47.2876
27562,51.1266,47.2436
27571.4,51.0808,47.1997
27580.9,51.0351,47.1557
27590.3,50.9893,47.1118
27599.7,50.9435,47.0678
27609.1,50.8978,47.0239
27618.5,50.852,46.98
27628,50.8062,46.936
27637.4,50.7605,46.8921
27646.8,50.7147,46.8481
27656.2,50.6689,46.8042
27665.6,50.6232,46.7602
27675.1,50.5774,46.7163
27684.5,50.5316,46.6723
27693.9,50.4858,46.6284
27703.3,50.4401,46.5844
27712.7,50.3943,46.5405
27722.1,50.3485,46.4966
27731.6,50.3028,46.4526
27741,50.257,46.4087
27750.4,50.2112,46.3647
27759.8,50.1655,46.3208
27769.2,50.1197,46.2768
27778.7,50.0739,46.2329
27788.1,50.0282,46.1889
27797.5,49.9824,46.145
27806.9,49.9366,46.1011
27816.3,49.8909,46.0571
27825.8,49.8451,46.0132
27835.2,49.7993,45.9692
27844.6,49.7536,45.9253
27854,49.7078,45.8813
27863.4,49.662,45.8374
27872.9,49.6163,45.7934
27882.3,49.5705,45.7495
27891.7,49.5247,45.7056
27901.1,49.479,45.6616
27910.5,49.4333,45.6178
27919.9,49.3901,45.5764
27929.4,49.3469,45.535
27938.8,49.3037,45.4936
27948.2,49.2605,45.4522
27957.6,49.2172,45.4109
27967,49.174,45.3695
27976.5,49.1308,45.3281
27985.9,49.0876,45.2867
27995.3,49.0444,45.2453
28004.7,49.0012,45.2039
28014.1,48.9579,45.1625
28023.6,48.9147,45.1211
28033,48.8715,45.0797
28042.4,48.8283,45.0383
28051.8,48.7851,44.9969
28061.2,48.7419,44.9555
28070.7,48.6987,44.9142
28080.1,48.6554,44.8728
28089.5,48.6122,44.8314
28098.9,48.569,44.79
28108.3,48.5258,44.7486
28117.8,48.4826,44.7072
28127.2,48.4394,44.6658
28136.6,48.3962,44.6244
28146,48.3529,44.583
28155.4,48.3097,44.5416
28164.8,48.2665,44.5002
28174.3,48.2233,44.4588
28183.7,48.1801,44.4174
28193.1,48.1369,44.3761
28202.5,48.0937,44.3347
28211.9,48.0504,44.2933
28221.4,48.0072,44.2519
28230.8,47.964,44.2105
28240.2,47.9208,44.1691
28249.6,47.8776,44.1277
28259,47.8343,44.0863
28268.5,47.7911,44.0449
28277.9,47.7479,44.0035
28287.3,47.7047,43.9621
28296.7,47.6615,43.9207
28306.1,47.6183,43.8793
28315.6,47.5751,43.838
28325,47.5318,43.7966
28334.4,47.4886,43.7552
28343.8,47.4454,43.7138
28353.2,47.4022,43.6724
28362.6,47.359,43.631
28372.1,47.3158,43.5896
28381.5,47.2726,43.5482
28390.9,47.2293,43.5068
28400.3,47.1861,43.4654
28409.7,47.1429,43.424
28419.2,47.0997,43.3826
28428.6,47.0565,43.3413
28438,47.0133,43.2999
28447.4,46.9701,43.2585
28456.8,46.9294,43.2196
28466.3,46.8896,43.1816
28475.7,46.8499,43.1436
28485.1,46.8102,43.1056
28494.5,46.7704,43.0676
28503.9,46.7307,43.0297
28513.4,46.6909,42.9917
28522.8,46.6512,42.9537
28532.2,46.6115,42.9157
28541.6,46.5717,42.8777
28551,46.532,42.8398
28560.5,46.4922,42.8018
28569.9,46.4525,42.7638
28579.3,46.4128,42.7258
28588.7,46.373,42.6878
28598.1,46.3333,42.6499
28607.5,46.2935,42.6119
28617,46.2538,42.5739
28626.4,46.2141,42.5359
28635.8,46.1743,42.4979
28645.2,46.1346,42.46
28654.6,46.0949,42.422
28664.1,46.0551,42.384
28673.5,46.0154,42.346
28682.9,45.9757,42.3081
28692.3,45.9359,42.2701
28701.7,45.8962,42.2321
28711.2,45.8564,42.1941
28720.6,45.8167,42.1561
28730,45.777,42.1182
28739.4,45.7372,42.0802
28748.8,45.6975,42.0422
28758.3,45.6577,42.0042
28767.7,45.618,41.9662
28777.1,45.5783,41.9282
28786.5,45.5385,41.8903
28795.9,45.4988,41.8523
28805.3,45.4591,41.8143
28814.8,45.4193,41.7763
28824.2,45.3796,41.7383
28833.6,45.3398,41.7004
28843,45.3001,41.6624
28852.4,45.2604,41.6244
28861.9,45.2206,41.5864
28871.3,45.1809,41.5485
28880.7,45.1412,41.5105
28890.1,45.1014,41.4725
28899.5,45.0617,41.4345
28909,45.0219,41.3965
28918.4,44.9822,41.3586
28927.8,44.9425,41.3206
28937.2,44.9027,41.2826
28946.6,44.863,41.2446
28956.1,44.8233,41.2066
28965.5,44.7835,41.1687
28974.9,44.7438,41.1307
28984.3,44.704,41.0927
28993.7,44.6643,41.0547
29003.2,44.6246,41.0167
29012.6,44.5856,40.9795
29022,44.5486,40.9443
29031.4,44.5116,40.909
29040.8,44.4747,40.8738
29050.2,44.4377,40.8386
29059.7,44.4007,40.8033
29069.1,44.3638,40.7681
29078.5,44.3268,40.7328
29087.9,44.2898,40.6976
29097.3,44.2529,40.6623
29106.8,44.2159,40.6271
29116.2,44.1789,40.5919
29125.6,44.142,40.5566
29135,44.105,40.5214
29144.4,44.068,40.4861
29153.9,44.0311,40.4509
29163.3,43.9941,40.4157
29172.7,43.9571,40.3804
29182.1,43.9202,40.3452
29191.5,43.8832,40.3099
29201,43.8462,40.2747
29210.4,43.8093,40.2395
29219.8,43.7723,40.2042
29229.2,43.7353,40.169
29238.6,43.6984,40.1337
29248,43.6614,40.0985
29257.5,43.6244,40.0633
29266.9,43.5875,40.028
29276.3,43.5505,39.9928
29285.7,43.5135,39.9575
29295.1,43.4766,39.9223
29304.6,43.4396,39.8871
29314,43.4026,39.8518
29323.4,43.3656,39.8166
29332.8,43.3287,39.7813
29342.2,43.2917,39.7461
29351.7,43.2547,39.7109
29361.1,43.2178,39.6756
29370.5,43.1808,39.6404
29379.9,43.1438,39.6051
29389.3,43.1069,39.5699
29398.8,43.0699,39.5347
29408.2,43.0329,39.4994
29417.6,42.996,39.4642
29427,42.959,39.4289
29436.4,42.922,39.3937
29445.9,42.8851,39.3585
29455.3,42.8481,39.3232
29464.7,42.8111,39.288
29474.1,42.7742,39.2527
29483.5,42.7372,39.2175
29492.9,42.7002,39.1823
29502.4,42.6633,39.147
29511.8,42.6263,39.1118
29521.2,42.5893,39.0765
29530.6,42.5524,39.0413
29540,42.5154,39.0061
29549.5,42.4784,38.9708
29558.9,42.4415,38.9356
29568.3,42.4045,38.9003
29577.7,42.3675,38.8651
29587.1,42.3319,38.8312
29596.6,42.2968,38.7976
29606,42.2616,38.7641
29615.4,42.2264,38.7306
29624.8,42.1912,38.697
29634.2,42.1561,38.6635
29643.7,42.1209,38.63
29653.1,42.0858,38.5965
29662.5,42.0506,38.563
29671.9,42.0154,38.5294
29681.3,41.9803,38.4959
29690.8,41.9451,38.4624
29700.2,41.9099,38.4289
29709.6,41.8748,38.3953
29719,41.8396,38.3618
29728.4,41.8044,38.3283
29737.8,41.7693,38.2948
29747.3,41.7341,38.2612
29756.7,41.6989,38.2277
29766.1,41.6638,38.1942
29775.5,41.6286,38.1607
29784.9,41.5934,38.1271
29794.4,41.5583,38.0936
29803.8,41.5231,38.0601
29813.2,41.4879,38.0266
29822.6,41.4528,37.993
29832,41.4176,37.9595
29841.5,41.3824,37.926
29850.9,41.3473,37.8925
29860.3,41.3121,37.8589
29869.7,41.2769,37.8254
29879.1,41.2418,37.7919
29888.6,41.2066,37.7583
29898,41.1714,37.7248
29907.4,41.1363,37.6913
29916.8,41.1011,37.6578
29926.2,41.0659,37.6242
29935.6,41.0308,37.5907
29945.1,40.9956,37.5572
29954.5,40.9604,37.5237
29963.9,40.9253,37.4902
29973.3,40.8901,37.4566
29982.7,40.8549,37.4231
29992.2,40.8198,37.3896
30001.6,40.7847,37.3561
30011,40.7499,37.3226
30020.4,40.7151,37.2891
30029.8,40.6803,37.2556
30039.3,40.6455,37.2221
30048.7,40.6107,37.1887
30058.1,40.5759,37.1552
30067.5,40.5411,37.1217
30076.9,40.5063,37.0882
30086.4,40.4716,37.0548
30095.8,40.4368,37.0213
30105.2,40.402,36.9878
30114.6,40.3672,36.9543
30124,40.3324,36.9208
30133.4,40.2976,36.8874
30142.9,40.2628,36.8539
30152.3,40.2286,36.821
30161.7,40.1962,36.79
30171.1,40.1638,36.7589
30180.5,40.1315,36.7279
30190,40.0991,36.6968
30199.4,40.0667,36.6658
30208.8,40.0343,36.6347
30218.2,40.002,36.6037
30227.6,39.9696,36.5727
30237.1,39.9372,36.5416
30246.5,39.9048,36.5106
30255.9,39.8725,36.4795
30265.3,39.8401,36.4485
30274.7,39.8077,36.4175
30284.2,39.7753,36.3864
30293.6,39.7429,36.3554
30303,39.7106,36.3243
30312.4,39.6782,36.2933
30321.8,39.6458,36.2622
30331.3,39.6134,36.2312
30340.7,39.5811,36.2002
30350.1,39.5487,36.1691
30359.5,39.5163,36.1381
30368.9,39.4839,36.107
30378.3,39.4515,36.076
30387.8,39.4192,36.045
30397.2,39.3868,36.0139
30406.6,39.3544,35.9829
30416,39.322,35.9518
30425.4,39.2897,35.9208
30434.9,39.2573,35.8898
30444.3,39.2249,35.8587
30453.7,39.1925,35.8277
30463.1,39.1602,35.7966
30472.5,39.1278,35.7656
30482,39.0954,35.7345
30491.4,39.063,35.7035
30500.8,39.0307,35.6725
30510.2,38.9983,35.6414
30519.6,38.9659,35.6104
30529.1,38.9335,35.5793
30538.5,38.9011,35.5483
30547.9,38.8688,35.5172
30557.3,38.8364,35.4862
30566.7,38.804,35.4552
30576.1,38.7716,35.4241
30585.6,38.7393,35.3931
30595,38.7069,35.362
30604.4,38.6745,35.331
30613.8,38.6421,35.3
30623.2,38.6098,35.2689
30632.7,38.5774,35.2379
30642.1,38.545,35.2068
30651.5,38.5126,35.1758
30660.9,38.4803,35.1448
30670.3,38.4479,35.1137
30679.8,38.4155,35.0827
30689.2,38.3831,35.0516
30698.6,38.3507,35.0206
30708,38.3184,34.9895
30717.4,38.286,34.9585
30726.9,38.2536,34.9275
30736.3,38.2212,34.8964
30745.7,38.1902,34.8668
30755.1,38.16,34.8381
30764.5,38.1298,34.8093
30774,38.0996,34.7806
30783.4,38.0694,34.7519
30792.8,38.0392,34.7232
30802.2,38.009,34.6945
30811.6,37.9788,34.6657
30821,37.9486,34.637
30830.5,37.9184,34.6083
30839.9,37.8882,34.5796
30849.3,37.858,34.5509
30858.7,37.8278,34.5221
30868.1,37.7976,34.4934
30877.6,37.7674,34.4647
30887,37.7372,34.436
30896.4,37.707,34.4073
30905.8,37.6768,34.3786
30915.2,37.6467,34.3498
30924.7,37.6165,34.3211
30934.1,37.5863,34.2924
30943.5,37.5561,34.2637
30952.9,37.5259,34.235
30962.3,37.4957,34.2062
30971.8,37.4655,34.1775
30981.2,37.4353,34.1488
30990.6,37.4051,34.1201
31000,37.3749,34.0914
31009.4,37.3447,34.0626
31018.8,37.3145,34.0339
31028.3,37.2843,34.0052
31037.7,37.2541,33.9765
31047.1,37.2239,33.9478
31056.5,37.1937,33.9191
31065.9,37.1635,33.8903
31075.4,37.1333,33.8616
31084.8,37.1031,33.8329
31094.2,37.0729,33.8042
31103.6,37.0427,33.7755
31113,37.0125,33.7467
31122.5,36.9823,33.718
31131.9,36.9521,33.6893
31141.3,36.9219,33.6606
31150.7,36.8917,33.6319
31160.1,36.8615,33.6031
31169.6,36.8314,33.5744
31179,36.8012,33.5457
31188.4,36.771,33.517
31197.8,36.7408,33.4883
31207.2,36.7106,33.4595
31216.7,36.6804,33.4308
31226.1,36.6502,33.4021
31235.5,36.62,33.3734
31244.9,36.5898,33.3447
31254.3,36.5596,33.3159
31263.7,36.5294,33.2872
31273.2,36.4992,33.2585
31282.6,36.469,33.2298
31292,36.4388,33.2011
31301.4,36.4086,33.1723
31310.8,36.3784,33.1436
31320.3,36.3482,33.1149
31329.7,36.318,33.0862
31339.1,36.2878,33.0575
31348.5,36.2598,33.031
31357.9,36.232,33.0048
31367.4,36.2042,32.9786
31376.8,36.1764,32.9524
31386.2,36.1486,32.9262
31395.6,36.1208,32.9
31405,36.0931,32.8738
31414.5,36.0653,32.8476
31423.9,36.0375,32.8214
31433.3,36.0097,32.7952
31442.7,35.9819,32.769
31452.1,35.9541,32.7428
31461.5,35.9263,32.7166
31471,35.8985,32.6904
31480.4,35.8707,32.6642
31489.8,35.8429,32.638
31499.2,35.8151,32.6118
31508.6,35.7873,32.5856
31518.1,35.7595,32.5594
31527.5,35.7317,32.5331
31536.9,35.704,32.5069
31546.3,35.6762,32.4807
31555.7,35.6484,32.4545
31565.2,35.6206,32.4283
31574.6,35.5928,32.4021
31584,35.565,32.3759
31593.4,35.5372,32.3497
31602.8,35.5094,32.3235
31612.3,35.4816,32.2973
31621.7,35.4538,32.2711
31631.1,35.426,32.2449
31640.5,35.3982,32.2187
31649.9,35.3704,32.1925
31659.4,35.3426,32.1663
31668.8,35.3149,32.1401
31678.2,35.2871,32.1139
31687.6,35.2593,32.0877
31697,35.2315,32.0615
31706.4,35.2037,32.0353
31715.9,35.1759,32.0091
31725.3,35.1481,31.9829
31734.7,35.1203,31.9566
31744.1,35.0925,31.9304
31753.5,35.0647,31.9042
31763,35.0369,31.878
31772.4,35.0091,31.8518
31781.8,34.9813,31.8256
31791.2,34.9535,31.7994
31800.6,34.9258,31.7732
31810.1,34.898,31.747
31819.5,34.8702,31.7208
31828.9,34.8424,31.6946
31838.3,34.8146,31.6684
31847.7,34.7868,31.6422
31857.2,34.759,31.616
31866.6,34.7312,31.5898
31876,34.7034,31.5636
31885.4,34.6756,31.5374
31894.8,34.6478,31.5112
31904.2,34.62,31.485
31913.7,34.5922,31.4588
31923.1,34.5644,31.4326
31932.5,34.5367,31.4064
31941.9,34.5089,31.3801
31951.3,34.4811,31.3539
31960.8,34.4534,31.3278
31970.2,34.4272,31.3029
31979.6,34.401,31.278
31989,34.3748,31.253
31998.4,34.3486,31.2281
32007.9,34.3224,31.2032
32017.3,34.2962,31.1782
32026.7,34.27,31.1533
32036.1,34.2438,31.1284
32045.5,34.2176,31.1034
32055,34.1914,31.0785
32064.4,34.1652,31.0536
32073.8,34.139,31.0286
32083.2,34.1127,31.0037
32092.6,34.0865,30.9788
32102.1,34.0603,30.9538
32111.5,34.0341,30.9289
32120.9,34.0079,30.904
32130.3,33.9817,30.879
32139.7,33.9555,30.8541
32149.1,33.9293,30.8292
32158.6,33.9031,30.8042
32168,33.8769,30.7793
32177.4,33.8507,30.7544
32186.8,33.8245,30.7294
32196.2,33.7983,30.7045
32205.7,33.7721,30.6796
32215.1,33.7459,30.6546
32224.5,33.7197,30.6297
32233.9,33.6935,30.6048
32243.3,33.6673,30.5798
32252.8,33.6411,30.5549
32262.2,33.6149,30.53
32271.6,33.5887,30.505
32281,33.5625,30.4801
32290.4,33.5363,30.4552
32299.9,33.5101,30.4302
32309.3,33.4838,30.4053
32318.7,33.4576,30.3804
32328.1,33.4314,30.3554
32337.5,33.4052,30.3305
32346.9,33.379,30.3056
32356.4,33.3528,30.2806
32365.8,33.3266,30.2557
32375.2,33.3004,30.2307
32384.6,33.2742,30.2058
32394,33.248,30.1809
32403.5,33.2218,30.1559
32412.9,33.1956,30.131
32422.3,33.1694,30.1061
32431.7,33.1432,30.0811
32441.1,33.117,30.0562
32450.6,33.0908,30.0313
32460,33.0646,30.0063
32469.4,33.0384,29.9814
32478.8,33.0122,29.9565
32488.2,32.986,29.9315
32497.7,32.9598,29.9066
32507.1,32.9336,29.8817
32516.5,32.9073,29.8567
32525.9,32.8811,29.8318
32535.3,32.8549,29.8069
32544.8,32.8287,29.7819
32554.2,32.8025,29.757
32563.6,32.7763,29.7321
32573,32.7501,29.7071
32582.4,32.7245,29.6827
32591.8,32.7004,29.6597
32601.3,32.6762,29.6367
32610.7,32.6521,29.6137
32620.1,32.628,29.5907
32629.5,32.6039,29.5678
32638.9,32.5798,29.5448
32648.4,32.5557,29.5218
32657.8,32.5316,29.4988
32667.2,32.5075,29.4758
32676.6,32.4834,29.4528
32686,32.4593,29.4298
32695.5,32.4352,29.4068
32704.9,32.4111,29.3838
32714.3,32.387,29.3608
32723.7,32.3629,29.3379
32733.1,32.3388,29.3149
32742.6,32.3147,29.2919
32752,32.2906,29.2689
32761.4,32.2665,29.2459
32770.8,32.2423,29.2229
32780.2,32.2182,29.1999
32789.7,32.1941,29.1769
32799.1,32.17,29.1539
32808.5,32.1459,29.131
32817.9,32.1218,29.108
32827.3,32.0977,29.085
32836.7,32.0736,29.062
32846.2,32.0495,29.039
32855.6,32.0254,29.016
32865,32.0013,28.993
32874.4,31.9772,28.97
32883.8,31.9531,28.947
32893.3,31.929,28.9241
32902.7,31.9049,28.9011
32912.1,31.8808,28.8781
32921.5,31.8567,28.8551
32930.9,31.8326,28.8321
32940.4,31.8085,28.8091
32949.8,31.7844,28.7861
32959.2,31.7602,28.7631
32968.6,31.7361,28.7401
32978,31.712,28.7172
32987.4,31.6879,28.6942
32996.9,31.6638,28.6712
33006.3,31.6397,28.6482
33015.7,31.6156,28.6252
33025.1,31.5915,28.6022
33034.5,31.5674,28.5792
33044,31.5433,28.5562
33053.4,31.5192,28.5332
33062.8,31.4951,28.5102
33072.2,31.471,28.4873
33081.6,31.4469,28.4643
33091.1,31.4228,28.4413
33100.5,31.3987,28.4183
33109.9,31.3746,28.3953
33119.3,31.3505,28.3723
33128.7,31.3264,28.3493
33138.2,31.3022,28.3263
33147.6,31.2781,28.3034
33157,31.254,28.2804
33166.4,31.2299,28.2574
33175.8,95.672,92.7002
33185.3,95.6008,92.6296
33194.7,95.5296,92.559
33204.1,95.4584,92.4885
33213.5,95.3872,92.4179
33222.9,95.3171,92.3486
33232.4,95.2493,92.2823
33241.8,95.1816,92.2159
33251.2,95.1139,92.1496
33260.6,95.0462,92.0832
33270,94.9785,92.0169
33279.4,94.9108,91.9505
33288.9,94.8431,91.8842
33298.3,94.7754,91.8178
33307.7,94.7076,91.7515
33317.1,94.6399,91.6851
33326.5,94.5722,91.6188
33336,94.5045,91.5524
33345.4,94.4368,91.4861
33354.8,94.3691,91.4197
33364.2,94.3014,91.3534
33373.6,94.2336,91.287
33383.1,94.1659,91.2207
33392.5,94.0982,91.1543
33401.9,94.0305,91.088
33411.3,93.9628,91.0216
33420.7,93.8951,90.9553
33430.2,93.8274,90.8889
33439.6,93.7597,90.8226
33449,93.6919,90.7562
33458.4,93.6242,90.6899
33467.8,93.5565,90.6235
33477.2,93.4888,90.5572
33486.7,93.4211,90.4908
33496.1,93.3534,90.4245
33505.5,93.2856,90.3581
33514.9,93.218,90.2918
33524.3,93.1502,90.2254
33533.8,93.0825,90.1591
33543.2,93.0148,90.0927
33552.6,92.9471,90.0264
33562,92.8794,89.96
33571.4,92.8117,89.8937
33580.9,92.7439,89.8273
33590.3,92.6762,89.761
33599.7,92.6085,89.6946
33609.1,92.5408,89.6282
33618.5,92.4731,89.5619
33628,92.4053,89.4955
33637.4,92.3376,89.4292
33646.8,92.2699,89.3629
33656.2,92.2022,89.2965
33665.6,92.1345,89.2301
33675.1,92.0668,89.1638
33684.5,91.9991,89.0975
33693.9,91.9314,89.0311
33703.3,91.8637,88.9647
33712.7,91.7959,88.8984
33722.1,91.7282,88.832
33731.6,91.6605,88.7657
33741,91.5928,88.6993
33750.4,91.5251,88.633
33759.8,91.4574,88.5666
33769.2,91.3897,88.5003
33778.7,91.322,88.434
33788.1,91.2542,88.3676
33797.5,91.1865,88.3012
33806.9,91.1188,88.2349
33816.3,91.0511,88.1686
33825.8,90.9834,88.1022
33835.2,90.9157,88.0358
33844.6,90.848,87.9695
33854,90.7802,87.9031
33863.4,90.7125,87.8368
33872.9,90.6462,87.7717
33882.3,90.5829,87.7097
33891.7,90.5196,87.6476
33901.1,90.4564,87.5855
33910.5,90.3931,87.5235
33919.9,90.3299,87.4614
33929.4,90.2666,87.3994
33938.8,90.2033,87.3373
33948.2,90.1401,87.2753
33957.6,90.0768,87.2132
33967,90.0136,87.1511
33976.5,89.9503,87.089
33985.9,89.8871,87.027
33995.3,89.8238,86.9649
34004.7,89.7606,86.9029
34014.1,89.6973,86.8408
34023.6,89.6341,86.7787
34033,89.5708,86.7167
34042.4,89.5076,86.6546
34051.8,89.4443,86.5925
34061.2,89.381,86.5305
34070.7,89.3178,86.4684
34080.1,89.2545,86.4064
34089.5,89.1913,86.3443
34098.9,89.128,86.2822
34108.3,89.0647,86.2202
34117.8,89.0015,86.1581
34127.2,88.9382,86.096
34136.6,88.875,86.034
34146,88.8117,85.9719
34155.4,88.7484,85.9098
34164.8,88.6852,85.8478
34174.3,88.6219,85.7857
34183.7,88.5587,85.7237
34193.1,88.4954,85.6616
34202.5,88.4322,85.5995
34211.9,88.3689,85.5375
34221.4,88.3057,85.4754
34230.8,88.2424,85.4133
34240.2,88.1792,85.3513
34249.6,88.1159,85.2892
34259,88.0527,85.2272
34268.5,87.9894,85.1651
34277.9,87.9261,85.103
34287.3,87.8629,85.041
34296.7,87.7996,84.9789
34306.1,87.7364,84.9168
34315.6,87.6731,84.8548
34325,87.6098,84.7927
34334.4,87.5466,84.7307
34343.8,87.4833,84.6686
34353.2,87.4201,84.6065
34362.6,87.3568,84.5445
34372.1,87.2936,84.4824
34381.5,87.2303,84.4203
34390.9,87.1671,84.3583
34400.3,87.1038,84.2962
34409.7,87.0405,84.2342
34419.2,86.9773,84.1721
34428.6,86.914,84.11
34438,86.8508,84.048
34447.4,86.7875,83.9859
34456.8,86.7243,83.9238
34466.3,86.661,83.8617
34475.7,86.5977,83.7997
34485.1,86.5345,83.7376
34494.5,86.4712,83.6756
34503.9,86.408,83.6135
34513.4,86.3447,83.5514
34522.8,86.2815,83.4894
34532.2,86.2193,83.4284
34541.6,86.161,83.3711
34551,86.1026,83.3137
34560.5,86.0443,83.2564
34569.9,85.9859,83.1991
34579.3,85.9276,83.1417
34588.7,85.8692,83.0844
34598.1,85.8108,83.027
34607.5,85.7525,82.9697
34617,85.6941,82.9124
34626.4,85.6358,82.855
34635.8,85.5774,82.7977
34645.2,85.5191,82.7403
34654.6,85.4607,82.683
34664.1,85.4024,82.6257
34673.5,85.344,82.5683
34682.9,85.2857,82.511
34692.3,85.2273,82.4536
34701.7,85.1689,82.3963
34711.2,85.1106,82.3389
34720.6,85.0522,82.2816
34730,84.9939,82.2242
34739.4,84.9355,82.1669
34748.8,84.8772,82.1096
34758.3,84.8188,82.0522
34767.7,84.7605,81.9949
34777.1,84.7021,81.9375
34786.5,84.6438,81.8802
34795.9,84.5854,81.8229
34805.3,84.527,81.7655
34814.8,84.4687,81.7082
34824.2,84.4103,81.6508
34833.6,84.352,81.5935
34843,84.2936,81.5362
34852.4,84.2353,81.4788
34861.9,84.1769,81.4215
34871.3,84.1185,81.3641
34880.7,84.0602,81.3068
34890.1,84.0018,81.2494
34899.5,83.9435,81.1921
34909,83.8851,81.1348
34918.4,83.8268,81.0774
34927.8,83.7684,81.0201
34937.2,83.7101,80.9627
34946.6,83.6517,80.9054
34956.1,83.5934,80.8481
34965.5,83.535,80.7907
34974.9,83.4766,80.7334
34984.3,83.4183,80.676
34993.7,83.3599,80.6187
35003.2,83.3016,80.5613
35012.6,83.2432,80.504
35022,83.1849,80.4467
35031.4,83.1265,80.3893
35040.8,83.0681,80.332
35050.2,83.0098,80.2746
35059.7,82.9515,80.2173
35069.1,82.8931,80.1599
35078.5,82.8347,80.1026
35087.9,82.7764,80.0452
35097.3,82.718,79.9879
35106.8,82.6597,79.9306
35116.2,82.6013,79.8733
35125.6,82.5429,79.8159
35135,82.4846,79.7586
35144.4,82.4263,79.7012
35153.9,82.3679,79.6439
35163.3,82.3095,79.5865
35172.7,82.2512,79.5292
35182.1,82.1928,79.4719
35191.5,82.1345,79.4145
35201,82.0761,79.3572
35210.4,82.0179,79.2999
35219.8,81.9623,79.2455
35229.2,81.9067,79.191
35238.6,81.8511,79.1366
35248.1,81.7954,79.0821
35257.5,81.7398,79.0277
35266.9,81.6842,78.9733
35276.3,81.6286,78.9188
35285.7,81.573,78.8644
35295.1,81.5174,78.8099
35304.6,81.4618,78.7555
35314,81.4062,78.7011
35323.4,81.3506,78.6466
35332.8,81.295,78.5922
35342.2,81.2394,78.5377
35351.7,81.1838,78.4833
35361.1,81.1282,78.4288
35370.5,81.0726,78.3744
35379.9,81.017,78.3199
35389.3,80.9614,78.2655
35398.8,80.9058,78.211
35408.2,80.8502,78.1566
35417.6,80.7946,78.1021
35427,80.739,78.0477
35436.4,80.6834,77.9932
35445.8,80.6278,77.9388
35455.3,80.5722,77.8844
35464.7,80.5166,77.8299
35474.1,80.461,77.7755
35483.5,80.4054,77.721
35492.9,80.3498,77.6666
35502.4,80.2942,77.6121
35511.8,80.2385,77.5577
35521.2,80.1829,77.5033
35530.6,80.1273,77.4488
35540,80.0717,77.3943
35549.5,80.0161,77.3399
35558.9,79.9605,77.2854
35568.3,79.9049,77.231
35577.7,79.8493,77.1766
35587.1,79.7937,77.1221
35596.6,79.7381,77.0677
35606,79.6825,77.0132
35615.4,79.6269,76.9588
35624.8,79.5713,76.9044
35634.2,79.5157,76.8499
35643.7,79.4601,76.7955
35653.1,79.4045,76.741
35662.5,79.3489,76.6865
35671.9,79.2933,76.6321
35681.3,79.2377,76.5777
35690.8,79.1821,76.5232
35700.2,79.1265,76.4688
35709.6,79.0709,76.4143
35719,79.0153,76.3599
35728.4,78.9596,76.3054
35737.8,78.9041,76.251
35747.3,78.8484,76.1965
35756.7,78.7929,76.1421
35766.1,78.7372,76.0877
35775.5,78.6816,76.0332
35784.9,78.626,75.9788
35794.4,78.5704,75.9243
35803.8,78.5148,75.8699
35813.2,78.4592,75.8154
35822.6,78.4036,75.761
35832,78.348,75.7065
35841.5,78.2924,75.6521
35850.9,78.2368,75.5976
35860.3,78.1812,75.5432
35869.7,78.1256,75.4887
35879.1,78.07,75.4343
35888.6,78.0144,75.3799
35898,77.9632,75.3294
35907.4,77.9129,75.2795
35916.8,77.8625,75.2297
35926.2,77.8121,75.1799
35935.6,77.7618,75.1301
35945.1,77.7114,75.0803
35954.5,77.6611,75.0305
35963.9,77.6107,74.9807
35973.3,77.5604,74.9309
35982.7,136.494,133.865
35992.2,136.404,133.777
36001.6,136.315,133.688
36011,136.225,133.6
36020.4,136.136,133.511
36029.8,136.046,133.422
36039.3,135.956,133.334
36048.7,135.867,133.245
36058.1,135.777,133.156
36067.5,135.687,133.068
36076.9,135.598,132.979
36086.4,135.508,132.891
36095.8,135.418,132.802
36105.2,135.329,132.713
36114.6,135.239,132.625
36124,135.149,132.536
36133.4,135.06,132.448
36142.9,134.97,132.359
36152.3,134.881,132.27
36161.7,134.791,132.182
36171.1,134.701,132.093
36180.5,134.612,132.004
36190,134.522,131.916
36199.4,134.432,131.827
36208.8,134.343,131.739
36218.2,134.253,131.65
36227.6,134.163,131.561
36237.1,134.074,131.473
36246.5,133.984,131.384
36255.9,133.894,131.296
36265.3,133.805,131.207
36274.7,133.715,131.118
36284.2,133.626,131.03
36293.6,133.536,130.941
36303,133.446,130.853
36312.4,133.357,130.764
36321.8,133.267,130.675
36331.2,133.177,130.587
36340.7,133.088,130.498
36350.1,132.998,130.409
36359.5,132.908,130.321
36368.9,132.819,130.232
36378.3,132.729,130.144
36387.8,132.639,130.055
36397.2,132.55,129.966
36406.6,132.46,129.878
36416,132.37,129.789
36425.4,132.281,129.701
36434.9,132.191,129.612
36444.3,132.102,129.523
36453.7,132.012,129.435
36463.1,131.922,129.346
36472.5,131.833,129.257
36482,131.743,129.169
36491.4,131.653,129.08
36500.8,131.564,128.992
36510.2,131.474,128.903
36519.6,131.384,128.814
36529.1,131.295,128.726
36538.5,131.205,128.637
36547.9,131.115,128.549
36557.3,131.026,128.46
36566.7,130.936,128.371
36576.1,130.847,128.283
36585.6,130.757,128.194
36595,130.667,128.106
36604.4,130.579,128.019
36613.8,130.494,127.934
36623.2,130.408,127.85
36632.7,130.323,127.765
36642.1,130.237,127.681
36651.5,130.152,127.597
36660.9,130.066,127.512
36670.3,129.98,127.428
36679.8,129.895,127.343
36689.2,129.809,127.259
36698.6,129.724,127.174
36708,129.638,127.09
36717.4,129.553,127.005
36726.9,129.467,126.921
36736.3,129.382,126.836
36745.7,129.296,126.752
36755.1,129.21,126.668
36764.5,129.125,126.583
36773.9,129.039,126.499
36783.4,128.954,126.414
36792.8,128.868,126.33
36802.2,128.783,126.245
36811.6,128.697,126.161
36821,128.611,126.076
36830.5,128.526,125.992
36839.9,128.44,125.907
36849.3,128.355,125.823
36858.7,128.269,125.738
36868.1,128.184,125.654
36877.6,128.098,125.57
36887,128.012,125.485
36896.4,127.927,125.401
36905.8,127.841,125.316
36915.2,127.756,125.232
36924.7,127.67,125.147
36934.1,127.585,125.063
36943.5,127.499,124.978
36952.9,127.413,124.894
36962.3,127.328,124.809
36971.8,127.242,124.725
36981.2,127.157,124.64
36990.6,127.071,124.556
37000,126.986,124.472
37009.4,126.9,124.387
37018.9,126.814,124.303
37028.3,126.729,124.218
37037.7,126.643,124.134
37047.1,126.558,124.049
37056.5,126.472,123.965
37065.9,126.387,123.88
37075.4,126.301,123.796
37084.8,126.216,123.711
37094.2,126.13,123.627
37103.6,126.044,123.543
37113,125.959,123.458
37122.5,125.873,123.374
37131.9,125.788,123.289
37141.3,125.702,123.205
37150.7,125.617,123.12
37160.1,125.531,123.036
37169.6,125.445,122.951
37179,125.36,122.867
37188.4,125.274,122.782
37197.8,125.189,122.698
37207.2,125.103,122.614
37216.7,125.018,122.529
37226.1,124.932,122.445
37235.5,124.846,122.36
37244.9,124.761,122.276
37254.3,124.675,122.191
37263.7,124.59,122.107
37273.2,124.504,122.022
37282.6,124.419,121.938
37292,124.333,121.853
37301.4,124.247,121.769
37310.8,124.162,121.685
37320.3,124.084,121.607
37329.7,124.005,121.529
37339.1,123.926,121.451
37348.5,123.847,121.373
37357.9,123.768,121.295
37367.4,123.689,121.216
37376.8,123.61,121.138
37386.2,123.531,121.06
37395.6,123.452,120.982
37405,123.373,120.904
37414.5,123.295,120.826
37423.9,123.216,120.748
37433.3,123.137,120.67
37442.7,123.058,120.592
37452.1,122.979,120.514
37461.6,122.9,120.435
37471,122.821,120.357
37480.4,122.742,120.279
37489.8,122.663,120.201
37499.2,122.584,120.123
37508.6,122.505,120.045
37518.1,122.427,119.967
37527.5,122.348,119.889
37536.9,122.269,119.811
37546.3,122.19,119.733
37555.7,122.111,119.655
37565.2,122.032,119.576
37574.6,121.953,119.498
37584,121.874,119.42
37593.4,121.795,119.342
37602.8,121.716,119.264
37612.3,121.637,119.186
37621.7,121.559,119.108
37631.1,121.48,119.03
37640.5,121.401,118.952
37649.9,121.322,118.874
37659.4,121.243,118.795
37668.8,121.164,118.717
37678.2,121.085,118.639
37687.6,121.006,118.561
37697,120.927,118.483
37706.4,120.848,118.405
37715.9,120.769,118.327
37725.3,120.691,118.249
37734.7,120.612,118.171
37744.1,120.533,118.093
37753.5,120.454,118.014
37763,120.375,117.936
37772.4,120.296,117.858
37781.8,120.217,117.78
37791.2,120.138,117.702
37800.6,120.059,117.624
37810.1,119.98,117.546
37819.5,119.902,117.468
37828.9,119.823,117.39
37838.3,119.744,117.312
37847.7,119.665,117.233
37857.2,119.586,117.155
37866.6,119.507,117.077
37876,119.428,116.999
37885.4,119.349,116.921
37894.8,119.27,116.843
37904.2,119.191,116.765
37913.7,119.112,116.687
37923.1,119.034,116.609
37932.5,118.955,116.531
37941.9,118.876,116.452
37951.3,118.797,116.374
37960.8,118.718,116.296
37970.2,118.639,116.218
37979.6,118.56,116.14
37989,118.481,116.062
37998.4,118.402,115.984
38007.9,118.323,115.906
38017.3,118.244,115.828
38026.7,118.166,115.75
38036.1,118.087,115.671
38045.5,118.011,115.597
38055,117.938,115.525
38064.4,117.866,115.453
38073.8,117.793,115.381
38083.2,117.72,115.309
38092.6,117.647,115.237
38102.1,117.574,115.164
38111.5,117.501,115.092
38120.9,117.428,115.02
38130.3,117.356,114.948
38139.7,117.283,114.876
38149.1,117.21,114.804
38158.6,117.137,114.732
38168,117.064,114.66
38177.4,116.991,114.588
38186.8,116.918,114.516
38196.2,116.845,114.444
38205.7,116.773,114.372
38215.1,116.7,114.3
38224.5,116.627,114.227
38233.9,116.554,114.155
38243.3,116.481,114.083
38252.8,116.408,114.011
38262.2,116.335,113.939
38271.6,116.263,113.867
38281,116.19,113.795
38290.4,116.117,113.723
38299.9,116.044,113.651
38309.3,115.971,113.579
38318.7,115.898,113.507
38328.1,115.825,113.435
38337.5,115.752,113.363
38346.9,115.68,113.29
38356.4,115.607,113.218
38365.8,115.534,113.146
38375.2,115.461,113.074
38384.6,115.388,113.002
38394,115.315,112.93
38403.5,115.242,112.858
38412.9,115.17,112.786
38422.3,115.097,112.714
38431.7,115.024,112.642
38441.1,114.951,112.57
38450.6,114.878,112.498
38460,114.805,112.426
38469.4,114.732,112.353
38478.8,114.66,112.281
38488.2,114.587,112.209
38497.7,114.514,112.137
38507.1,114.441,112.065
38516.5,114.368,111.993
38525.9,114.295,111.921
38535.3,114.222,111.849
38544.8,114.149,111.777
38554.2,114.077,111.705
38563.6,114.004,111.633
38573,113.931,111.561
38582.4,113.858,111.489
38591.8,113.785,111.416
38601.3,113.712,111.344
38610.7,113.639,111.272
38620.1,113.567,111.2
38629.5,113.494,111.128
38638.9,113.421,111.056
38648.4,113.348,110.984
38657.8,113.275,110.912
38667.2,113.202,110.84
38676.6,113.129,110.768
38686,113.057,110.696
38695.5,112.984,110.624
38704.9,112.911,110.552
38714.3,112.838,110.479
38723.7,112.765,110.407
38733.1,112.692,110.335
38742.6,112.619,110.263
38752,112.546,110.191
38761.4,112.474,110.119
38770.8,112.401,110.047
38780.2,112.328,109.975
38789.6,112.255,109.903
38799.1,112.186,109.834
38808.5,112.116,109.766
38817.9,112.047,109.698
38827.3,111.978,109.629
38836.7,111.908,109.561
38846.2,111.839,109.492
38855.6,111.77,109.424
38865,111.7,109.356
38874.4,111.631,109.287
38883.8,111.562,109.219
38893.3,111.492,109.15
38902.7,111.423,109.082
38912.1,111.354,109.014
38921.5,111.284,108.945
38930.9,111.215,108.877
38940.4,111.146,108.808
38949.8,111.076,108.74
38959.2,111.007,108.672
38968.6,110.938,108.603
38978,110.868,108.535
38987.5,110.799,108.466
38996.9,110.73,108.398
39006.3,110.66,108.33
39015.7,110.591,108.261
39025.1,110.522,108.193
39034.5,110.453,108.124
39044,110.383,108.056
39053.4,110.314,107.988
39062.8,110.245,107.919
39072.2,110.175,107.851
39081.6,110.106,107.782
39091.1,110.037,107.714
39100.5,109.967,107.646
39109.9,109.898,107.577
39119.3,109.829,107.509
39128.7,109.759,107.44
39138.2,109.69,107.372
39147.6,109.621,107.304
39157,109.551,107.235
39166.4,109.482,107.167
39175.8,109.413,107.098
39185.3,109.343,107.03
39194.7,109.274,106.962
39204.1,109.205,106.893
39213.5,109.135,106.825
39222.9,109.066,106.756
39232.3,108.997,106.688
39241.8,108.928,106.62
39251.2,108.858,106.551
39260.6,108.789,106.483
39270,108.72,106.414
39279.4,108.65,106.346
39288.9,108.581,106.278
39298.3,108.512,106.209
39307.7,108.442,106.141
39317.1,108.373,106.072
39326.5,108.304,106.004
39336,108.234,105.936
39345.4,108.165,105.867
39354.8,108.096,105.799
39364.2,108.026,105.73
39373.6,107.957,105.662
39383.1,107.888,105.593
39392.5,107.818,105.525
39401.9,107.749,105.457
39411.3,107.68,105.388
39420.7,107.61,105.32
39430.2,107.541,105.252
39439.6,107.472,105.183
39449,107.403,105.115
39458.4,107.333,105.046
39467.8,107.264,104.978
39477.2,107.195,104.909
39486.7,107.125,104.841
39496.1,107.056,104.773
39505.5,106.987,104.704
39514.9,106.917,104.636
39524.3,106.848,104.567
39533.8,106.779,104.499
39543.2,106.711,104.432
39552.6,106.647,104.369
39562,106.583,104.306
39571.4,106.519,104.242
39580.9,106.455,104.179
39590.3,106.391,104.116
39599.7,106.327,104.052
39609.1,106.263,103.989
39618.5,106.199,103.926
39628,106.135,103.862
39637.4,106.071,103.799
39646.8,106.007,103.735
39656.2,105.943,103.672
39665.6,105.879,103.609
39675.1,105.815,103.545
39684.5,105.751,103.482
39693.9,105.687,103.419
39703.3,105.623,103.355
39712.7,105.559,103.292
39722.1,105.495,103.229
39731.6,105.431,103.165
39741,105.367,103.102
39750.4,105.303,103.038
39759.8,105.239,102.975
39769.2,105.175,102.912
39778.7,105.111,102.848
39788.1,105.047,102.785
39797.5,104.983,102.722
39806.9,104.919,102.658
39816.3,104.855,102.595
39825.8,104.791,102.532
39835.2,104.727,102.468
39844.6,104.663,102.405
39854,104.599,102.342
39863.4,104.535,102.278
39872.9,104.471,102.215
39882.3,104.407,102.151
39891.7,104.343,102.088
39901.1,104.279,102.025
39910.5,104.215,101.961
39919.9,104.151,101.898
39929.4,104.087,101.835
39938.8,104.023,101.771
39948.2,103.959,101.708
39957.6,103.895,101.645
39967,103.831,101.581
39976.5,103.767,101.518
39985.9,103.703,101.454
39995.3,103.639,101.391
40004.7,103.576,101.329
40014.1,103.514,101.268
40023.6,103.452,101.207
40033,103.389,101.146
40042.4,103.327,101.085
40051.8,103.265,101.024
40061.2,103.203,100.963
40070.7,103.141,100.902
40080.1,103.079,100.842
40089.5,103.016,100.781
40098.9,102.954,100.72
40108.3,102.892,100.659
40117.8,102.83,100.598
40127.2,102.768,100.537
40136.6,102.706,100.476
40146,102.644,100.415
40155.4,102.581,100.354
40164.8,102.519,100.293
40174.3,102.457,100.232
40183.7,102.395,100.171
40193.1,102.333,100.11
40202.5,102.271,100.05
40211.9,102.208,99.9886
40221.4,102.146,99.9277
40230.8,102.084,99.8667
40240.2,102.022,99.8058
40249.6,101.96,99.7449
40259,101.898,99.684
40268.5,101.836,99.623
40277.9,101.773,99.5621
40287.3,101.711,99.5012
40296.7,101.649,99.4403
40306.1,101.587,99.3793
40315.6,101.525,99.3184
40325,101.464,99.2587
40334.4,101.405,99.2001
40343.8,101.346,99.1416
40353.2,101.287,99.083
40362.6,101.228,99.0244
40372.1,101.169,98.9658
40381.5,101.11,98.9073
40390.9,101.051,98.8487
40400.3,100.992,98.7901
40409.7,100.932,98.7315
40419.2,100.873,98.6729
40428.6,100.814,98.6143
40438,100.755,98.5558
40447.4,100.696,98.4972
40456.8,100.637,98.4386
40466.3,100.578,98.38
40475.7,100.519,98.3214
40485.1,100.46,98.2629
40494.5,100.401,98.2043
40503.9,100.342,98.1457
40513.4,100.283,98.0871
40522.8,100.224,98.0285
40532.2,100.164,97.9699
40541.6,100.105,97.9114
40551,100.046,97.8528
40560.4,99.9872,97.7942
40569.9,99.9281,97.7356
40579.3,99.8691,97.6771
40588.7,99.81,97.6185
40598.1,99.7509,97.5599
40607.5,99.6918,97.5013
40617,99.6328,97.4427
40626.4,99.5737,97.3841
40635.8,99.5146,97.3256
40645.2,99.4555,97.267
40654.6,99.3964,97.2084
40664.1,99.3373,97.1498
40673.5,99.2783,97.0912
40682.9,99.2192,97.0327
40692.3,99.1601,96.9741
40701.7,99.101,96.9155
40711.2,99.042,96.8569
40720.6,98.9829,96.7983
40730,98.9238,96.7398
40739.4,98.8647,96.6812
40748.8,98.8056,96.6226
40758.3,98.7466,96.564
40767.7,98.6875,96.5054
40777.1,98.6284,96.4469
40786.5,98.5693,96.3883
40795.9,98.5102,96.3297
40805.4,98.4511,96.2711
40814.8,98.3921,96.2125
40824.2,98.333,96.154
40833.6,98.2739,96.0954
40843,98.2148,96.0368
40852.4,98.1558,95.9782
40861.9,98.0967,95.9196
40871.3,98.0376,95.8611
40880.7,97.9785,95.8025
40890.1,97.9194,95.7439
40899.5,97.8604,95.6853
40909,97.8013,95.6267
40918.4,97.7422,95.5681
40927.8,97.6831,95.5096
40937.2,97.624,95.451
40946.6,97.565,95.3924
40956.1,97.5059,95.3338
40965.5,97.4468,95.2753
40974.9,97.3877,95.2167
40984.3,97.3287,95.1581
40993.7,97.2696,95.0995
41003.1,97.2105,95.0409
41012.6,97.1514,94.9823
41022,97.0923,94.9238
41031.4,97.0333,94.8652
41040.8,96.9742,94.8066
41050.2,96.9151,94.748
41059.7,96.856,94.6894
41069.1,96.7969,94.6309
41078.5,96.7379,94.5723
41087.9,96.6788,94.5137
41097.3,96.6197,94.4551
41106.8,96.5606,94.3965
41116.2,96.5038,94.3404
41125.6,96.4482,94.2857
41135,96.3925,94.2309
41144.4,96.3369,94.1761
41153.9,96.2813,94.1214
41163.3,96.2257,94.0666
41172.7,96.17,94.0118
41182.1,96.1144,93.9571
41191.5,96.0587,93.9023
41201,96.0031,93.8475
41210.4,95.9475,93.7927
41219.8,95.8919,93.738
41229.2,95.8362,93.6832
41238.6,95.7806,93.6284
41248.1,95.7249,93.5736
41257.5,95.6693,93.5189
41266.9,95.6137,93.4641
41276.3,95.5581,93.4093
41285.7,95.5024,93.3546
41295.1,95.4468,93.2998
41304.6,95.3912,93.245
41314,95.3355,93.1902
41323.4,95.2799,93.1355
41332.8,95.2242,93.0807
41342.2,95.1686,93.0259
41351.7,95.113,92.9712
41361.1,95.0574,92.9164
41370.5,95.0017,92.8616
41379.9,94.9461,92.8068
41389.3,94.8905,92.7521
41398.8,94.8348,92.6973
41408.2,94.7792,92.6425
41417.6,94.7236,92.5878
41427,94.6679,92.533
41436.4,94.6123,92.4782
41445.9,94.5567,92.4235
41455.3,94.501,92.3687
41464.7,94.4454,92.3139
41474.1,94.3898,92.2592
41483.5,94.3341,92.2044
41492.9,94.2785,92.1496
41502.4,94.2229,92.0948
41511.8,94.1672,92.0401
41521.2,94.1116,91.9853
41530.6,94.056,91.9305
41540,94.0003,91.8757
41549.5,93.9447,91.821
41558.9,93.8891,91.7662
41568.3,93.8334,91.7114
41577.7,93.7778,91.6567
41587.1,93.7222,91.6019
41596.6,93.6665,91.5471
41606,93.6109,91.4923
41615.4,93.5553,91.4376
41624.8,93.4996,91.3828
41634.2,93.444,91.328
41643.7,93.3884,91.2732
41653.1,93.3327,91.2185
41662.5,93.2771,91.1637
41671.9,93.2215,91.1089
41681.3,93.1658,91.0542
41690.7,93.1102,90.9994
41700.2,93.0546,90.9446
41709.6,92.9989,90.8899
41719,92.9433,90.8351
41728.4,92.8877,90.7803
41737.8,92.832,90.7255
41747.3,92.7764,90.6708
41756.7,92.7208,90.616
41766.1,92.6651,90.5612
41775.5,92.6095,90.5064
41784.9,92.5539,90.4517
41794.4,92.4982,90.3969
41803.8,92.4426,90.3422
41813.2,92.387,90.2874
41822.6,92.3314,90.2326
41832,92.2757,90.1778
41841.5,92.2201,90.1231
41850.9,92.1644,90.0683
41860.3,92.1088,90.0135
41869.7,92.0532,89.9588
41879.1,91.9975,89.904
41888.6,91.9419,89.8492
41898,91.8863,89.7944
41907.4,91.8306,89.7397
41916.8,91.778,89.6878
41926.2,91.7265,89.637
41935.6,91.6749,89.5862
41945.1,91.6234,89.5354
41954.5,91.5719,89.4846
41963.9,91.5204,89.4338
41973.3,91.4689,89.383
41982.7,91.4174,89.3322
41992.2,91.3659,89.2814
42001.6,91.3144,89.2306
42011,91.2628,89.1798
42020.4,91.2113,89.129
42029.8,91.1598,89.0782
42039.3,91.1083,89.0274
42048.7,91.0568,88.9767
42058.1,91.0053,88.9259
42067.5,90.9538,88.8751
42076.9,90.9023,88.8243
42086.4,90.8507,88.7735
42095.8,90.7992,88.7227
42105.2,90.7477,88.6719
42114.6,90.6962,88.6211
42124,90.6447,88.5703
42133.4,90.5932,88.5195
42142.9,90.5416,88.4687
42152.3,90.4901,88.4179
42161.7,90.4386,88.3671
42171.1,90.3871,88.3163
42180.5,90.3356,88.2655
42190,90.2841,88.2147
42199.4,90.2326,88.1639
42208.8,90.181,88.1131
42218.2,90.1295,88.0624
42227.6,90.078,88.0116
42237.1,90.0265,87.9608
42246.5,89.975,87.91
42255.9,89.9235,87.8592
42265.3,89.872,87.8084
42274.7,89.8205,87.7576
42284.2,89.7689,87.7068
42293.6,89.7174,87.656
42303,89.6659,87.6052
42312.4,89.6144,87.5544
42321.8,89.5629,87.5036
42331.2,89.5114,87.4528
42340.7,89.4598,87.402
42350.1,89.4084,87.3513
42359.5,89.3568,87.3005
42368.9,89.3053,87.2497
42378.3,89.2538,87.1989
42387.8,89.2023,87.1481
42397.2,89.1508,87.0973
42406.6,89.0992,87.0465
42416,89.0477,86.9957
42425.4,88.9962,86.9449
42434.9,88.9447,86.8941
42444.3,88.8932,86.8433
42453.7,88.8417,86.7925
42463.1,88.7902,86.7417
42472.5,88.7386,86.6909
42482,88.6871,86.6401
42491.4,88.6356,86.5894
42500.8,88.5841,86.5385
42510.2,88.5326,86.4878
42519.6,88.4811,86.437
42529.1,88.4296,86.3862
42538.5,88.3781,86.3354
42547.9,88.3265,86.2846
42557.3,88.275,86.2338
42566.7,88.2235,86.183
42576.1,88.172,86.1322
42585.6,88.1205,86.0814
42595,88.069,86.0306
42604.4,88.0174,85.9798
42613.8,87.9659,85.929
42623.2,87.9144,85.8782
42632.7,87.8629,85.8274
42642.1,87.8114,85.7766
42651.5,87.7599,85.7258
42660.9,87.7084,85.675
42670.3,87.6569,85.6243
42679.8,87.6053,85.5735
42689.2,87.5538,85.5227
42698.6,87.5023,85.4719
42708,87.4508,85.4211
42717.4,87.3993,85.3703
42726.9,87.3478,85.3195
42736.3,87.2983,85.2708
42745.7,87.2499,85.2231
42755.1,87.2015,85.1754
42764.5,87.1531,85.1277
42774,87.1047,85.08
42783.4,87.0563,85.0323
42792.8,87.0079,84.9846
42802.2,86.9595,84.937
42811.6,86.9111,84.8892
42821,86.8627,84.8416
42830.5,86.8143,84.7939
42839.9,86.7659,84.7462
42849.3,86.7175,84.6985
42858.7,86.6691,84.6508
42868.1,86.6207,84.6031
42877.6,86.5723,84.5554
42887,86.5239,84.5077
42896.4,86.4755,84.46
42905.8,86.4271,84.4123
42915.2,86.3787,84.3647
42924.7,86.3303,84.317
42934.1,86.2819,84.2693
42943.5,86.2335,84.2216
42952.9,86.1851,84.1739
42962.3,86.1367,84.1262
42971.8,86.0883,84.0785
42981.2,86.0399,84.0308
42990.6,85.9914,83.9831
43000,85.9431,83.9354
43009.4,85.8946,83.8877
43018.8,85.8463,83.8401
43028.3,85.7978,83.7924
43037.7,85.7495,83.7447
43047.1,85.701,83.697
43056.5,85.6527,83.6493
43065.9,85.6042,83.6016
43075.4,85.5558,83.5539
43084.8,85.5074,83.5062
43094.2,85.459,83.4585
43103.6,85.4106,83.4108
43113,85.3622,83.3632
43122.5,85.3138,83.3155
43131.9,85.2654,83.2678
43141.3,85.217,83.2201
43150.7,85.1686,83.1724
43160.1,85.1202,83.1247
43169.6,85.0718,83.077
43179,85.0234,83.0293
43188.4,84.975,82.9816
43197.8,84.9266,82.9339
43207.2,84.8782,82.8863
43216.7,84.8298,82.8386
43226.1,84.7814,82.7909
43235.5,84.733,82.7432
43244.9,84.6846,82.6955
43254.3,84.6362,82.6478
43263.8,84.5878,82.6001
43273.2,84.5394,82.5524
43282.6,84.491,82.5047
43292,84.4426,82.457
43301.4,84.3942,82.4093
43310.8,84.3458,82.3617
43320.3,84.2974,82.314
43329.7,84.249,82.2663
43339.1,84.2006,82.2186
43348.5,84.1522,82.1709
43357.9,84.1038,82.1232
43367.4,84.0554,82.0755
43376.8,84.007,82.0278
43386.2,83.9586,81.9801
43395.6,83.9102,81.9324
43405,83.8618,81.8848
43414.5,83.8134,81.8371
43423.9,83.765,81.7894
43433.3,83.7166,81.7417
43442.7,83.6682,81.694
43452.1,83.6198,81.6463
43461.5,83.5714,81.5986
43471,83.5229,81.5509
43480.4,83.4745,81.5032
43489.8,83.4261,81.4555
43499.2,83.3777,81.4078
43508.6,83.3293,81.3602
43518.1,83.2809,81.3125
43527.5,83.2325,81.2648
43536.9,83.1841,81.2171
43546.3,83.1357,81.1694
43555.7,83.0873,81.1217
43565.2,83.0411,81.0762
43574.6,82.9967,81.0324
43584,82.9523,80.9887
43593.4,82.9078,80.945
43602.8,82.8634,80.9012
43612.3,82.819,80.8575
43621.7,82.7746,80.8138
43631.1,82.7301,80.77
43640.5,82.6857,80.7263
43649.9,82.6413,80.6825
43659.4,82.5969,80.6388
43668.8,82.5524,80.5951
43678.2,82.508,80.5513
43687.6,82.4636,80.5076
43697,82.4192,80.4639
43706.4,82.3747,80.4201
43715.9,82.3303,80.3764
43725.3,82.2859,80.3326
43734.7,82.2415,80.2889
43744.1,82.197,80.2452
43753.5,82.1526,80.2014
43763,82.1082,80.1577
43772.4,82.0638,80.114
43781.8,82.0194,80.0702
43791.2,81.9749,80.0265
43800.6,81.9305,79.9827
43810.1,81.8861,79.939
43819.5,81.8417,79.8953
43828.9,81.7972,79.8515
43838.3,81.7528,79.8078
43847.7,81.7084,79.7641
43857.2,81.664,79.7203
43866.6,81.6195,79.6766
43876,81.5751,79.6329
43885.4,81.5307,79.5891
43894.8,81.4863,79.5454
43904.2,81.4418,79.5016
43913.7,81.3974,79.4579
43923.1,81.353,79.4142
43932.5,81.3086,79.3704
43941.9,81.2642,79.3267
43951.3,81.2197,79.283
43960.8,81.1753,79.2392
43970.2,81.1309,79.1955
43979.6,81.0865,79.1518
43989,81.042,79.108
43998.4,80.9976,79.0643
44007.9,80.9532,79.0205
44017.3,80.9088,78.9768
44026.7,80.8643,78.9331
44036.1,80.8199,78.8893
44045.5,80.7755,78.8456
44055,80.7311,78.8018
44064.4,80.6866,78.7581
44073.8,80.6422,78.7144
44083.2,80.5978,78.6706
44092.6,80.5534,78.6269
44102.1,80.5089,78.5832
44111.5,80.4645,78.5394
44120.9,80.4201,78.4957
44130.3,80.3757,78.452
44139.7,80.3312,78.4082
44149.1,80.2868,78.3645
44158.6,80.2424,78.3208
44168,80.198,78.277
44177.4,80.1535,78.2333
44186.8,80.1091,78.1895
44196.2,80.0647,78.1458
44205.7,80.0203,78.1021
44215.1,79.9759,78.0583
44224.5,79.9314,78.0146
44233.9,79.887,77.9708
44243.3,79.8426,77.9271
44252.8,79.7982,77.8834
44262.2,79.7537,77.8397
44271.6,79.7093,77.7959
44281,79.6649,77.7522
44290.4,79.6205,77.7084
44299.9,79.576,77.6647
44309.3,79.5316,77.621
44318.7,79.4872,77.5772
44328.1,79.4428,77.5335
44337.5,79.3983,77.4897
44346.9,79.3539,77.446
44356.4,79.3095,77.4023
44365.8,79.2651,77.3585
44375.2,79.2206,77.3148
44384.6,79.1762,77.2711
44394,79.1318,77.2273
44403.5,79.0874,77.1836
44412.9,79.0429,77.1398
44422.3,78.9991,77.0966
44431.7,78.9568,77.0548
44441.1,78.9146,77.013
44450.6,78.8723,76.9712
44460,78.8301,76.9294
44469.4,78.7878,76.8876
44478.8,78.7456,76.8459
44488.2,78.7033,76.804
44497.7,78.6611,76.7623
44507.1,78.6188,76.7205
44516.5,78.5766,76.6787
44525.9,78.5343,76.6369
44535.3,78.4921,76.5951
44544.8,78.4498,76.5533
44554.2,78.4076,76.5115
44563.6,78.3653,76.4697
44573,78.3231,76.4279
44582.4,78.2808,76.3861
44591.8,78.2386,76.3444
44601.3,78.1963,76.3026
44610.7,78.1541,76.2608
44620.1,78.1118,76.219
44629.5,78.0696,76.1772
44638.9,78.0274,76.1354
44648.4,77.9851,76.0936
44657.8,77.9428,76.0518
44667.2,77.9006,76.01
44676.6,77.8583,75.9682
44686,77.8161,75.9265
44695.5,77.7739,75.8847
44704.9,77.7316,75.8429
44714.3,77.6894,75.8011
44723.7,77.6471,75.7593
44733.1,77.6049,75.7175
44742.6,77.5626,75.6757
44752,77.5204,75.6339
44761.4,77.4781,75.5921
44770.8,77.4359,75.5504
44780.2,77.3936,75.5086
44789.6,77.3514,75.4668
44799.1,77.3091,75.425
44808.5,77.2669,75.3832
44817.9,77.2246,75.3414
44827.3,77.1824,75.2996
44836.7,77.1401,75.2578
44846.2,77.0979,75.216
44855.6,77.0556,75.1742
44865,77.0134,75.1324
44874.4,76.9711,75.0906
44883.8,76.9289,75.0488
44893.3,76.8866,75.0071
44902.7,76.8444,74.9653
44912.1,76.8021,74.9235
44921.5,76.7599,74.8817
44930.9,76.7176,74.8399
44940.4,76.6754,74.7981
44949.8,76.6331,74.7563
44959.2,76.5909,74.7145
44968.6,76.5486,74.6727
44978,76.5064,74.6309
44987.5,76.4641,74.5891
44996.9,76.4219,74.5474
45006.3,76.3797,74.5056
45015.7,76.3374,74.4638
45025.1,76.2952,74.422
45034.5,76.2529,74.3802
45044,76.2107,74.3384
45053.4,76.1684,74.2966
45062.8,76.1262,74.2548
45072.2,76.0839,74.213
45081.6,76.0417,74.1713
45091.1,75.9994,74.1295
45100.5,75.9572,74.0877
45109.9,75.9149,74.0459
45119.3,75.8727,74.0041
45128.7,75.8304,73.9623
45138.2,75.7882,73.9205
45147.6,75.7459,73.8787
45157,75.7037,73.8369
45166.4,75.6614,73.7951
45175.8,75.6192,73.7533
45185.3,75.5769,73.7116
45194.7,75.5347,73.6698
45204.1,75.4924,73.628
45213.5,75.4502,73.5862
45222.9,75.4079,73.5444
45232.4,75.3657,73.5026
45241.8,75.3234,73.4608
45251.2,75.2812,73.419
45260.6,75.239,73.3772
45270,75.1967,73.3354
45279.4,75.1544,73.2937
45288.9,75.1153,73.2552
45298.3,75.0764,73.2169
45307.7,75.0374,73.1786
45317.1,74.9985,73.1403
45326.5,74.9595,73.102
45336,74.9206,73.0638
45345.4,74.8816,73.0255
45354.8,74.8427,72.9872
45364.2,74.8038,72.9489
45373.6,74.7648,72.9107
45383.1,74.7259,72.8724
45392.5,74.6869,72.8341
45401.9,74.648,72.7958
45411.3,74.609,72.7575
45420.7,74.5701,72.7192
45430.2,74.5312,72.681
45439.6,74.4922,72.6427
45449,74.4533,72.6044
45458.4,74.4143,72.5661
45467.8,74.3754,72.5278
45477.2,74.3364,72.4896
45486.7,74.2975,72.4513
45496.1,74.2585,72.413
45505.5,74.2196,72.3747
45514.9,74.1807,72.3364
45524.3,74.1417,72.2982
45533.8,74.1028,72.2599
45543.2,74.0638,72.2216
45552.6,74.0249,72.1833
45562,73.9859,72.1451
45571.4,73.947,72.1068
45580.9,73.9081,72.0685
45590.3,73.8691,72.0302
45599.7,73.8302,71.9919
45609.1,73.7912,71.9537
45618.5,73.7523,71.9154
45628,73.7133,71.8771
45637.4,73.6744,71.8388
45646.8,73.6354,71.8005
45656.2,73.5965,71.7623
45665.6,73.5576,71.724
45675.1,73.5186,71.6857
45684.5,73.4797,71.6474
45693.9,73.4407,71.6091
45703.3,73.4018,71.5708
45712.7,73.3628,71.5326
45722.1,73.3239,71.4943
45731.6,73.285,71.456
45741,73.246,71.4177
45750.4,73.2071,71.3795
45759.8,73.1681,71.3412
45769.2,73.1292,71.3029
45778.7,73.0902,71.2646
45788.1,73.0513,71.2263
45797.5,73.0123,71.188
45806.9,72.9734,71.1498
45816.3,72.9345,71.1115
45825.8,72.8955,71.0732
45835.2,72.8566,71.0349
45844.6,72.8176,70.9967
45854,72.7787,70.9584
45863.4,72.7397,70.9201
45872.9,72.7008,70.8818
45882.3,72.6619,70.8435
45891.7,72.6229,70.8053
45901.1,72.584,70.767
45910.5,72.545,70.7287
45919.9,72.5061,70.6904
45929.4,72.4671,70.6521
45938.8,72.4282,70.6139
45948.2,72.3892,70.5756
45957.6,72.3503,70.5373
45967,72.3114,70.499
45976.5,72.2724,70.4607
45985.9,72.2335,70.4225
45995.3,72.1945,70.3842
46004.7,72.1556,70.3459
46014.1,72.1166,70.3076
46023.6,72.0777,70.2693
46033,72.0387,70.231
46042.4,71.9998,70.1928
46051.8,71.9609,70.1545
46061.2,71.9219,70.1162
46070.7,71.883,70.0779
46080.1,71.844,70.0397
46089.5,71.8051,70.0014
46098.9,71.7662,69.9631
46108.3,71.7272,69.9248
46117.8,71.6883,69.8865
46127.2,71.6493,69.8483
46136.6,71.6104,69.81
46146,71.5714,69.7717
46155.4,71.5325,69.7334
46164.8,71.4935,69.6951
46174.3,71.4556,69.6578
46183.7,71.419,69.6216
46193.1,71.3823,69.5854
46202.5,71.3457,69.5492
46211.9,71.309,69.5129
46221.4,71.2724,69.4767
46230.8,71.2357,69.4405
46240.2,71.1991,69.4043
46249.6,71.1624,69.3681
46259,71.1258,69.3319
46268.5,71.0891,69.2957
46277.9,71.0525,69.2595
46287.3,71.0158,69.2232
46296.7,70.9792,69.187
46306.1,70.9425,69.1508
46315.6,70.9059,69.1146
46325,70.8692,69.0784
46334.4,70.8326,69.0422
46343.8,70.7959,69.006
46353.2,70.7593,68.9698
46362.6,70.7226,68.9335
46372.1,70.686,68.8973
46381.5,70.6493,68.8611
46390.9,70.6127,68.8249
46400.3,70.576,68.7887
46409.7,70.5394,68.7525
46419.2,70.5027,68.7162
46428.6,70.4661,68.68
46438,70.4294,68.6438
46447.4,70.3928,68.6076
46456.8,70.3561,68.5714
46466.3,70.3195,68.5352
46475.7,70.2828,68.499
46485.1,70.2462,68.4628
46494.5,70.2095,68.4265
46503.9,70.1729,68.3903
46513.4,70.1362,68.3541
46522.8,70.0996,68.3179
46532.2,70.0629,68.2817
46541.6,70.0263,68.2455
46551,69.9896,68.2093
46560.5,69.9529,68.173
46569.9,69.9163,68.1368
46579.3,69.8797,68.1006
46588.7,69.843,68.0644
46598.1,69.8063,68.0282
46607.5,69.7697,67.992
46617,69.733,67.9558
46626.4,69.6964,67.9196
46635.8,69.6597,67.8833
46645.2,69.6231,67.8471
46654.6,69.5864,67.8109
46664.1,69.5498,67.7747
46673.5,69.5131,67.7385
46682.9,69.4765,67.7023
46692.3,69.4398,67.6661
46701.7,69.4032,67.6298
46711.2,69.3665,67.5936
46720.6,69.3299,67.5574
46730,69.2932,67.5212
46739.4,69.2566,67.485
46748.8,69.2199,67.4488
46758.2,69.1833,67.4126
46767.7,69.1466,67.3764
46777.1,69.11,67.3401
46786.5,69.0733,67.3039
46795.9,69.0367,67.2677
46805.3,69,67.2315
46814.8,68.9634,67.1953
46824.2,68.9267,67.1591
46833.6,68.8901,67.1228
46843,68.8534,67.0867
46852.4,68.8168,67.0504
46861.9,68.7801,67.0142
46871.3,68.7435,66.978
46880.7,68.7068,66.9418
46890.1,68.6702,66.9056
46899.5,68.6335,66.8694
46909,68.5969,66.8331
46918.4,68.5602,66.7969
46927.8,68.5236,66.7607
46937.2,68.4869,66.7245
46946.6,68.4503,66.6883
46956.1,68.4136,66.6521
46965.5,68.377,66.6159
46974.9,68.3403,66.5797
46984.3,68.3037,66.5434
46993.7,68.267,66.5072
47003.2,68.2303,66.471
47012.6,68.1937,66.4348
47022,68.1571,66.3986
47031.4,68.1204,66.3624
47040.8,68.0837,66.3262
47050.2,68.0471,66.29
47059.7,68.0105,66.2537
47069.1,67.9738,66.2175
47078.5,67.9393,66.1836
47087.9,67.9051,66.1498
47097.3,67.8708,66.1161
47106.8,67.8366,66.0824
47116.2,67.8023,66.0487
47125.6,67.7681,66.015
47135,67.7338,65.9813
47144.4,67.6996,65.9476
47153.9,67.6653,65.9139
47163.3,67.6311,65.8801
47172.7,67.5968,65.8464
47182.1,67.5626,65.8127
47191.5,67.5283,65.779
47201,67.4941,65.7453
47210.4,67.4598,65.7116
47219.8,67.4256,65.6779
47229.2,67.3913,65.6441
47238.6,67.3571,65.6104
47248,67.3228,65.5767
47257.5,67.2886,65.543
47266.9,67.2543,65.5093
47276.3,67.2201,65.4756
47285.7,67.1859,65.4419
47295.1,67.1516,65.4081
47304.6,67.1173,65.3744
47314,67.0831,65.3407
47323.4,67.0489,65.307
47332.8,67.0146,65.2733
47342.2,66.9804,65.2396
47351.7,66.9461,65.2059
47361.1,66.9119,65.1722
47370.5,66.8776,65.1385
47379.9,66.8433,65.1047
47389.3,66.8091,65.071
47398.8,66.7748,65.0373
47408.2,66.7406,65.0036
47417.6,66.7064,64.9699
47427,66.6721,64.9362
47436.4,66.6379,64.9024
47445.9,66.6036,64.8687
47455.3,66.5694,64.835
47464.7,66.5351,64.8013
47474.1,66.5009,64.7676
47483.5,66.4666,64.7339
47492.9,66.4324,64.7002
47502.4,66.3981,64.6665
47511.8,66.3639,64.6327
47521.2,66.3296,64.599
47530.6,66.2954,64.5653
47540,66.2611,64.5316
47549.5,66.2269,64.4979
47558.9,66.1926,64.4642
47568.3,66.1584,64.4305
47577.7,66.1241,64.3967
47587.1,66.0899,64.363
47596.6,66.0556,64.3293
47606,66.0214,64.2956
47615.4,65.9871,64.2619
47624.8,65.9529,64.2282
47634.2,65.9186,64.1945
47643.7,65.8844,64.1608
47653.1,65.8501,64.127
47662.5,65.8159,64.0933
47671.9,65.7816,64.0596
47681.3,65.7474,64.0259
47690.8,65.7131,63.9922
47700.2,65.6789,63.9585
47709.6,65.6446,63.9247
47719,65.6104,63.891
47728.4,65.5761,63.8573
47737.8,65.5419,63.8236
47747.3,65.5076,63.7899
47756.7,65.4734,63.7562
47766.1,65.4392,63.7225
47775.5,65.4049,63.6888
47784.9,65.3707,63.655
47794.4,65.3364,63.6213
47803.8,65.3021,63.5876
47813.2,65.2679,63.5539
47822.6,65.2337,63.5202
47832,65.1994,63.4865
47841.5,65.1652,63.4528
47850.9,65.1309,63.4191
47860.3,65.0967,63.3853
47869.7,65.0624,63.3516
47879.1,65.0282,63.3179
47888.6,64.9939,63.2842
47898,64.9597,63.2505
47907.4,64.9254,63.2168
47916.8,64.8912,63.1831
47926.2,64.8569,63.1493
47935.6,64.8227,63.1156
47945.1,64.7884,63.0819
47954.5,64.7542,63.0482
47963.9,64.7199,63.0145
47973.3,64.6857,62.9808
47982.7,64.6514,62.9471
47992.2,64.6177,62.9139
48001.6,64.5856,62.8824
48011,64.5536,62.851
48020.4,64.5215,62.8196
48029.8,64.4895,62.7882
48039.3,64.4574,62.7567
48048.7,64.4254,62.7253
48058.1,64.3933,62.6939
48067.5,64.3613,62.6625
48076.9,64.3292,62.631
48086.4,64.2971,62.5996
48095.8,64.2651,62.5682
48105.2,64.233,62.5368
48114.6,64.201,62.5053
48124,64.1689,62.4739
48133.4,64.1369,62.4425
48142.9,64.1048,62.4111
48152.3,64.0728,62.3796
48161.7,64.0407,62.3482
48171.1,64.0087,62.3168
48180.5,63.9766,62.2854
48190,63.9446,62.2539
48199.4,63.9125,62.2225
48208.8,63.8805,62.1911
48218.2,63.8484,62.1597
48227.6,63.8163,62.1282
48237.1,63.7843,62.0968
48246.5,63.7522,62.0654
48255.9,63.7202,62.034
48265.3,63.6881,62.0025
48274.7,63.6561,61.9711
48284.2,63.624,61.9397
48293.6,63.592,61.9083
48303,63.5599,61.8768
48312.4,63.5279,61.8454
48321.8,63.4958,61.814
48331.3,63.4637,61.7826
48340.7,63.4317,61.7511
48350.1,63.3996,61.7197
48359.5,63.3676,61.6883
48368.9,63.3355,61.6569
48378.3,63.3035,61.6254
48387.8,63.2714,61.594
48397.2,63.2394,61.5626
48406.6,63.2073,61.5312
48416,63.1753,61.4997
48425.4,63.1432,61.4683
48434.9,63.1112,61.4369
48444.3,63.0791,61.4055
48453.7,63.0471,61.374
48463.1,63.015,61.3426
48472.5,62.9829,61.3112
48482,62.9509,61.2798
48491.4,62.9188,61.2483
48500.8,62.8868,61.2169
48510.2,62.8547,61.1855
48519.6,62.8227,61.1541
48529.1,62.7906,61.1226
48538.5,62.7586,61.0912
48547.9,62.7265,61.0598
48557.3,62.6945,61.0284
48566.7,62.6624,60.9969
48576.1,62.6304,60.9655
48585.6,62.5983,60.9341
48595,62.5662,60.9027
48604.4,62.5342,60.8712
48613.8,62.5021,60.8398
48623.2,62.4701,60.8084
48632.7,62.438,60.777
48642.1,62.406,60.7455
48651.5,62.3739,60.7141
48660.9,62.3419,60.6827
48670.3,62.3098,60.6513
48679.8,62.2778,60.6198
48689.2,62.2457,60.5884
48698.6,62.2137,60.557
48708,62.1816,60.5256
48717.4,62.1495,60.4941
48726.9,62.1175,60.4627
48736.3,62.0854,60.4313
48745.7,62.0534,60.3999
48755.1,62.0213,60.3684
48764.5,61.9893,60.337
48773.9,61.9572,60.3056
48783.4,61.9252,60.2742
48792.8,61.8931,60.2427
48802.2,61.8611,60.2113
48811.6,61.829,60.1799
48821,61.797,60.1485
48830.5,61.7649,60.117
48839.9,61.7329,60.0856
48849.3,61.7008,60.0542
48858.7,61.6687,60.0227
48868.1,61.6367,59.9913
48877.6,61.6046,59.9599
48887,61.5726,59.9285
48896.4,61.5405,59.897
48905.8,61.5085,59.8656
48915.2,61.4764,59.8342
48924.7,61.4444,59.8028
48934.1,61.4133,59.7723
48943.5,61.3836,59.7429
48952.9,61.3538,59.7136
48962.3,61.3241,59.6843
48971.8,61.2943,59.6549
48981.2,61.2646,59.6256
48990.6,61.2348,59.5962
49000,61.2051,59.5669
49009.4,61.1754,59.5376
49018.9,61.1456,59.5082
49028.3,61.1159,59.4789
49037.7,61.0861,59.4496
49047.1,61.0564,59.4202
49056.5,61.0266,59.3909
49065.9,60.9969,59.3616
49075.4,60.9671,59.3322
49084.8,60.9374,59.3029
49094.2,60.9077,59.2736
49103.6,60.8779,59.2442
49113,60.8482,59.2149
49122.5,60.8184,59.1856
49131.9,60.7887,59.1562
49141.3,60.7589,59.1269
49150.7,60.7292,59.0976
49160.1,60.6994,59.0682
49169.6,60.6697,59.0389
49179,60.64,59.0096
49188.4,60.6102,58.9802
49197.8,60.5805,58.9509
49207.2,60.5507,58.9216
49216.6,60.521,58.8922
49226.1,60.4912,58.8629
49235.5,60.4615,58.8336
49244.9,60.4317,58.8042
49254.3,60.402,58.7749
49263.7,60.3723,58.7456
49273.2,60.3425,58.7162
49282.6,60.3128,58.6869
49292,60.283,58.6575
49301.4,60.2533,58.6282
49310.8,60.2235,58.5989
49320.3,60.1938,58.5695
49329.7,60.164,58.5402
49339.1,60.1343,58.5109
49348.5,60.1045,58.4815
49357.9,60.0748,58.4522
49367.4,60.0451,58.4229
49376.8,60.0153,58.3935
49386.2,59.9856,58.3642
49395.6,59.9558,58.3349
49405,59.9261,58.3055
49414.5,59.8963,58.2762
49423.9,59.8666,58.2469
49433.3,59.8369,58.2175
49442.7,59.8071,58.1882
49452.1,59.7774,58.1589
49461.6,59.7476,58.1295
49471,59.7179,58.1002
49480.4,59.6881,58.0709
49489.8,59.6584,58.0415
49499.2,59.6286,58.0122
49508.6,59.5989,57.9829
49518.1,59.5691,57.9535
49527.5,59.5394,57.9242
49536.9,59.5097,57.8949
49546.3,59.4799,57.8655
49555.7,59.4502,57.8362
49565.2,59.4204,57.8068
49574.6,59.3907,57.7775
49584,59.3609,57.7482
49593.4,59.3312,57.7188
49602.8,59.3014,57.6895
49612.3,59.2717,57.6602
49621.7,59.2419,57.6308
49631.1,59.2122,57.6015
49640.5,59.1825,57.5722
49649.9,59.1527,57.5428
49659.4,59.123,57.5135
49668.8,59.0932,57.4842
49678.2,59.0635,57.4548
49687.6,59.0337,57.4255
49697,59.004,57.3962
49706.4,58.9743,57.3668
49715.9,58.9445,57.3375
49725.3,58.9148,57.3082
49734.7,58.885,57.2788
49744.1,58.8553,57.2495
49753.5,58.8255,57.2202
49763,58.7958,57.1908
49772.4,58.766,57.1615
49781.8,58.7363,57.1322
49791.2,58.7066,57.1028
49800.6,58.6768,57.0735
49810.1,58.6471,57.0442
49819.5,58.6173,57.0148
49828.9,58.5876,56.9855
49838.3,58.5578,56.9561
49847.7,58.5281,56.9268
49857.2,58.4983,56.8975
49866.6,58.4686,56.8681
49876,58.4388,56.8388
49885.4,58.4091,56.8095
49894.8,58.3795,56.7805
49904.2,58.3499,56.7519
49913.7,58.3204,56.7232
49923.1,58.2908,56.6946
49932.5,58.2613,56.6659
49941.9,58.2318,56.6373
49951.3,58.2022,56.6086
49960.8,58.1727,56.58
49970.2,58.1431,56.5513
49979.6,58.1136,56.5227
49989,58.0841,56.494
49998.4,58.0545,56.4654
50007.9,58.0263,56.4376
50017.3,57.9984,56.41
50026.7,57.9704,56.3825
50036.1,57.9425,56.3549
50045.5,57.9146,56.3273
50055,57.8866,56.2997
50064.4,57.8587,56.2721
50073.8,57.8308,56.2445
50083.2,57.8028,56.2169
50092.6,57.7749,56.1893
50102.1,57.747,56.1617
50111.5,57.719,56.1341
50120.9,57.6911,56.1065
50130.3,57.6631,56.0789
50139.7,57.6352,56.0513
50149.1,57.6073,56.0237
50158.6,57.5793,55.9961
50168,57.5514,55.9685
50177.4,57.5235,55.941
50186.8,57.4955,55.9134
50196.2,57.4676,55.8858
50205.7,57.4396,55.8582
50215.1,57.4117,55.8306
50224.5,57.3838,55.803
50233.9,57.3558,55.7754
50243.3,57.3279,55.7478
50252.8,57.3,55.7202
50262.2,57.272,55.6926
50271.6,57.2441,55.665
50281,57.2162,55.6374
50290.4,57.1882,55.6098
50299.9,57.1603,55.5822
50309.3,57.1323,55.5547
50318.7,57.1044,55.5271
50328.1,57.0765,55.4995
50337.5,57.0485,55.4719
50346.9,57.0206,55.4443
50356.4,56.9927,55.4167
50365.8,56.9647,55.3891
50375.2,56.9368,55.3615
50384.6,56.9089,55.3339
50394,56.8809,55.3063
50403.5,56.853,55.2787
50412.9,56.825,55.2511
50422.3,56.7971,55.2235
50431.7,56.7692,55.1959
50441.1,56.7412,55.1683
50450.6,56.7133,55.1408
50460,56.6854,55.1132
50469.4,56.6574,55.0856
50478.8,56.6295,55.058
50488.2,56.6016,55.0304
50497.7,56.5736,55.0028
50507.1,56.5457,54.9752
50516.5,56.5177,54.9476
50525.9,56.4898,54.92
50535.3,56.4619,54.8924
50544.8,56.4339,54.8648
50554.2,56.406,54.8372
50563.6,56.3781,54.8096
50573,56.3501,54.782
50582.4,56.3222,54.7545
50591.8,56.2942,54.7269
50601.3,56.2663,54.6993
50610.7,56.2384,54.6717
50620.1,56.2104,54.6441
50629.5,56.1825,54.6165
50638.9,56.1546,54.5889
50648.4,56.1266,54.5613
50657.8,56.0987,54.5337
50667.2,56.0708,54.5061
50676.6,56.0428,54.4785
50686,56.0149,54.4509
50695.5,55.9869,54.4233
50704.9,55.959,54.3957
50714.3,55.9311,54.3681
50723.7,55.9031,54.3406
50733.1,55.8752,54.313
50742.6,55.8473,54.2854
50752,55.8193,54.2578
50761.4,55.7914,54.2302
50770.8,55.7634,54.2026
50780.2,55.7355,54.175
50789.7,55.7076,54.1474
50799.1,55.6796,54.1198
50808.5,55.6517,54.0922
50817.9,55.6238,54.0646
50827.3,55.5958,54.037
50836.7,55.5679,54.0094
50846.2,55.54,53.9818
50855.6,55.512,53.9543
50865,55.485,53.9277
50874.4,55.4588,53.902
50883.8,55.4326,53.8763
50893.3,55.4064,53.8506
50902.7,55.3802,53.8249
50912.1,55.3541,53.7992
50921.5,55.3279,53.7735
50930.9,55.3017,53.7478
50940.4,55.2755,53.7221
50949.8,55.2493,53.6964
50959.2,55.2231,53.6707
50968.6,55.1969,53.645
50978,55.1707,53.6193
50987.5,55.1445,53.5936
50996.9,55.1183,53.5679
51006.3,55.0921,53.5422
51015.7,55.0659,53.5165
51025.1,55.0397,53.4908
51034.5,55.0136,53.4651
51044,54.9874,53.4394
51053.4,54.9612,53.4137
51062.8,54.935,53.388
51072.2,54.9088,53.3623
51081.6,54.8826,53.3366
51091.1,54.8564,53.3109
51100.5,54.8302,53.2852
51109.9,54.804,53.2595
51119.3,54.7778,53.2338
51128.7,54.7516,53.2081
51138.2,54.7254,53.1824
51147.6,54.6993,53.1567
51157,54.6731,53.131
51166.4,54.6469,53.1053
51175.8,54.6207,53.0796
51185.3,54.5945,53.0539
51194.7,54.5683,53.0282
51204.1,54.5421,53.0025
51213.5,54.5159,52.9768
51222.9,54.4897,52.9511
51232.4,54.4635,52.9254
51241.8,54.4373,52.8997
51251.2,54.4111,52.874
51260.6,54.3849,52.8483
51270,54.3588,52.8226
51279.4,54.3326,52.7969
51288.9,54.3064,52.7712
51298.3,54.2802,52.7455
51307.7,54.254,52.7198
51317.1,54.2278,52.6941
51326.5,54.2016,52.6684
51336,54.1754,52.6427
51345.4,54.1492,52.617
51354.8,54.123,52.5913
51364.2,54.0968,52.5656
51373.6,54.0707,52.5399
51383.1,54.0445,52.5142
51392.5,54.0183,52.4885
51401.9,53.9921,52.4628
51411.3,53.9659,52.4371
51420.7,53.9397,52.4114
51430.2,53.9135,52.3857
51439.6,53.8873,52.36
51449,53.8611,52.3343
51458.4,53.8349,52.3086
51467.8,53.8087,52.2829
51477.2,53.7825,52.2572
51486.7,53.7563,52.2315
51496.1,53.7302,52.2058
51505.5,53.704,52.1801
51514.9,53.6778,52.1544
51524.3,53.6516,52.1287
51533.8,53.6254,52.103
51543.2,53.5992,52.0773
51552.6,53.573,52.0516
51562,53.5468,52.0259
51571.4,53.5206,52.0002
51580.9,53.4944,51.9745
51590.3,53.4682,51.9488
51599.7,53.4421,51.9231
51609.1,53.4159,51.8974
51618.5,53.3897,51.8717
51628,53.3635,51.846
51637.4,53.3373,51.8203
51646.8,53.3111,51.7946
51656.2,53.2849,51.7689
51665.6,53.2587,51.7432
51675.1,53.2325,51.7175
51684.5,53.2063,51.6918
51693.9,53.1801,51.6661
51703.3,53.1539,51.6404
51712.7,53.1278,51.6147
51722.1,53.1016,51.589
51731.6,53.0754,51.5633
51741,53.0492,51.5376
51750.4,53.023,51.5119
51759.8,52.9968,51.4862
51769.2,52.9706,51.4605
51778.7,52.9444,51.4348
51788.1,52.9182,51.4091
51797.5,52.892,51.3834
51806.9,52.8658,51.3577
51816.3,52.8396,51.332
51825.8,52.8134,51.3063
51835.2,52.7873,51.2806
51844.6,52.7611,51.2549
51854,52.7349,51.2292
51863.4,52.7093,51.2041
51872.9,52.6847,51.1799
51882.3,52.6601,51.1557
51891.7,52.6356,51.1315
51901.1,52.611,51.1074
51910.5,52.5864,51.0832
51919.9,52.5619,51.059
51929.4,52.5373,51.0348
51938.8,52.5127,51.0106
51948.2,52.4882,50.9865
51957.6,52.4636,50.9623
51967,52.439,50.9381
51976.5,52.4145,50.9139
51985.9,52.3899,50.8898
51995.3,52.3653,50.8656
52004.7,52.3408,50.8414
52014.1,52.3162,50.8172
52023.6,52.2916,50.7931
52033,52.2671,50.7689
52042.4,52.2425,50.7447
52051.8,52.2179,50.7205
52061.2,52.1933,50.6963
52070.7,52.1688,50.6722
52080.1,52.1442,50.648
52089.5,52.1196,50.6238
52098.9,52.0951,50.5996
52108.3,52.0705,50.5755
52117.8,52.0459,50.5513
52127.2,52.0214,50.5271
52136.6,51.9968,50.5029
52146,51.9722,50.4787
52155.4,51.9477,50.4546
52164.8,51.9231,50.4304
52174.3,51.8985,50.4062
52183.7,51.874,50.382
52193.1,51.8494,50.3579
52202.5,51.8248,50.3337
52211.9,51.8003,50.3095
52221.4,51.7757,50.2853
52230.8,51.7511,50.2611
52240.2,51.7266,50.237
52249.6,51.702,50.2128
52259,51.6774,50.1886
52268.5,51.6529,50.1644
52277.9,51.6283,50.1403
52287.3,51.6037,50.1161
52296.7,51.5792,50.0919
52306.1,51.5546,50.0677
52315.6,51.53,50.0435
52325,51.5055,50.0194
52334.4,51.4809,49.9952
52343.8,51.4563,49.971
52353.2,51.4318,49.9468
52362.6,51.4072,49.9227
52372.1,51.3826,49.8985
52381.5,51.3581,49.8743
52390.9,51.3335,49.8501
52400.3,51.3089,49.8259
52409.7,51.2843,49.8018
52419.2,51.2598,49.7776
52428.6,51.2352,49.7534
52438,51.2107,49.7292
52447.4,51.1861,49.7051
52456.8,51.1615,49.6809
52466.3,51.1369,49.6567
52475.7,51.1124,49.6325
52485.1,51.0878,49.6083
52494.5,51.0632,49.5842
52503.9,51.0387,49.56
52513.4,51.0141,49.5358
52522.8,50.9895,49.5116
52532.2,50.965,49.4875
52541.6,50.9404,49.4633
52551,50.9158,49.4391
52560.4,50.8913,49.4149
52569.9,50.8667,49.3908
52579.3,50.8421,49.3666
52588.7,50.8176,49.3424
52598.1,50.793,49.3182
52607.5,50.7684,49.294
52617,50.7439,49.2699
52626.4,50.7193,49.2457
52635.8,50.6947,49.2215
52645.2,50.6702,49.1973
52654.6,50.6456,49.1732
52664.1,50.621,49.149
52673.5,50.5965,49.1248
52682.9,50.5719,49.1006
52692.3,50.5473,49.0764
52701.7,50.5228,49.0523
52711.2,50.4982,49.0281
52720.6,50.4736,49.0039
52730,50.449,48.9797
52739.4,50.4245,48.9556
52748.8,50.3999,48.9314
52758.3,50.3753,48.9072
52767.7,50.3508,48.883
52777.1,50.3262,48.8588
52786.5,50.3017,48.8347
52795.9,50.2771,48.8105
52805.3,50.2525,48.7863
52814.8,50.2279,48.7621
52824.2,50.2034,48.738
52833.6,50.1788,48.7138
52843,50.1542,48.6896
52852.4,50.1297,48.6654
52861.9,50.1051,48.6412
52871.3,50.0808,48.6173
52880.7,50.058,48.595
52890.1,50.0351,48.5726
52899.5,50.0123,48.5503
52909,49.9895,48.5279
52918.4,49.9667,48.5056
52927.8,49.9439,48.4833
52937.2,49.921,48.4609
52946.6,49.8982,48.4386
52956.1,49.8754,48.4162
52965.5,49.8526,48.3939
52974.9,49.8298,48.3715
52984.3,49.807,48.3492
52993.7,49.7841,48.3268
53003.1,49.7613,48.3045
53012.6,49.7385,48.2822
53022,49.7157,48.2598
53031.4,49.6929,48.2375
53040.8,49.6701,48.2151
53050.2,49.6472,48.1928
53059.7,49.6244,48.1704
53069.1,49.6016,48.1481
53078.5,49.5788,48.1257
53087.9,49.556,48.1034
53097.3,49.5332,48.0811
53106.8,49.5103,48.0587
53116.2,49.4875,48.0364
53125.6,49.4647,48.014
53135,49.4419,47.9917
53144.4,49.4191,47.9693
53153.9,49.3962,47.947
53163.3,49.3734,47.9246
53172.7,49.3506,47.9023
53182.1,49.3278,47.88
53191.5,49.305,47.8576
53201,49.2822,47.8353
53210.4,49.2593,47.8129
53219.8,49.2365,47.7906
53229.2,49.2137,47.7682
53238.6,49.1909,47.7459
53248.1,49.1681,47.7235
53257.5,49.1453,47.7012
53266.9,49.1224,47.6789
53276.3,49.0996,47.6565
53285.7,49.0768,47.6342
53295.1,49.054,47.6118
53304.6,49.0312,47.5895
53314,49.0084,47.5672
53323.4,48.9855,47.5448
53332.8,48.9627,47.5225
53342.2,48.9399,47.5001
53351.7,48.9171,47.4778
53361.1,48.8943,47.4554
53370.5,48.8715,47.4331
53379.9,48.8486,47.4107
53389.3,48.8258,47.3884
53398.8,48.803,47.3661
53408.2,48.7802,47.3437
53417.6,48.7574,47.3214
53427,48.7345,47.299
53436.4,48.7117,47.2767
53445.9,48.6889,47.2543
53455.3,48.6661,47.232
53464.7,48.6433,47.2096
53474.1,48.6205,47.1873
53483.5,48.5976,47.165
53492.9,48.5748,47.1426
53502.4,48.552,47.1203
53511.8,48.5292,47.0979
53521.2,48.5064,47.0756
53530.6,48.4836,47.0532
53540,48.4607,47.0309
53549.5,48.4379,47.0085
53558.9,48.4151,46.9862
53568.3,48.3923,46.9639
53577.7,48.3695,46.9415
53587.1,48.3467,46.9192
53596.6,48.3238,46.8968
53606,48.301,46.8745
53615.4,48.2782,46.8521
53624.8,48.2554,46.8298
53634.2,48.2326,46.8074
53643.7,48.2097,46.7851
53653.1,48.1869,46.7628
53662.5,48.1641,46.7404
53671.9,48.1413,46.7181
53681.3,48.1185,46.6957
53690.8,48.0957,46.6734
53700.2,48.0728,46.651
53709.6,48.05,46.6287
53719,48.0272,46.6063
53728.4,48.0044,46.584
53737.8,47.9816,46.5617
53747.3,47.9588,46.5393
53756.7,47.9359,46.517
53766.1,47.9131,46.4946
53775.5,47.8903,46.4723
53784.9,47.8675,46.4499
53794.4,47.8447,46.4276
53803.8,47.8218,46.4053
53813.2,47.799,46.3829
53822.6,47.7762,46.3606
53832,47.7534,46.3382
53841.5,47.7306,46.3159
53850.9,47.7078,46.2935
53860.3,47.6849,46.2712
53869.7,47.6621,46.2488
53879.1,47.6393,46.2265
53888.6,47.6165,46.2042
53898,47.5937,46.1818
53907.4,47.5709,46.1595
53916.8,47.549,46.138
53926.2,47.5275,46.1169
53935.6,47.5061,46.0958
53945.1,47.4846,46.0747
53954.5,47.4631,46.0536
53963.9,47.4416,46.0325
53973.3,47.4202,46.0114
53982.7,47.3987,45.9903
53992.2,47.3772,45.9692
54001.6,47.3557,45.9481
54011,47.3343,45.927
54020.4,47.3128,45.9059
54029.8,47.2913,45.8848
54039.3,47.2698,45.8637
54048.7,47.2484,45.8426
54058.1,47.2269,45.8215
54067.5,47.2054,45.8004
54076.9,47.1839,45.7793
54086.4,47.1625,45.7582
54095.8,47.141,45.7371
54105.2,47.1195,45.716
54114.6,47.098,45.6949
54124,47.0766,45.6738
54133.4,47.0551,45.6527
54142.9,47.0336,45.6316
54152.3,47.0121,45.6105
54161.7,46.9907,45.5894
54171.1,46.9692,45.5683
54180.5,46.9477,45.5472
54190,46.9262,45.5261
54199.4,46.9048,45.505
54208.8,46.8833,45.4839
54218.2,46.8618,45.4628
54227.6,46.8403,45.4417
54237.1,46.8189,45.4206
54246.5,46.7974,45.3995
54255.9,46.7759,45.3784
54265.3,46.7544,45.3573
54274.7,46.733,45.3362
54284.2,46.7115,45.3151
54293.6,46.69,45.294
54303,46.6685,45.2729
54312.4,46.6471,45.2518
54321.8,46.6256,45.2307
54331.2,46.6041,45.2096
54340.7,46.5826,45.1885
54350.1,46.5612,45.1674
54359.5,46.5397,45.1463
54368.9,46.5182,45.1252
54378.3,46.4967,45.1041
54387.8,46.4753,45.083
54397.2,46.4538,45.0619
54406.6,46.4323,45.0408
54416,46.4108,45.0197
54425.4,46.3894,44.9986
54434.9,46.3679,44.9775
54444.3,46.3464,44.9564
54453.7,46.3249,44.9353
54463.1,46.3035,44.9142
54472.5,46.282,44.8931
54482,46.2605,44.872
54491.4,46.239,44.8509
54500.8,46.2176,44.8298
54510.2,46.1961,44.8087
54519.6,46.1746,44.7876
54529.1,46.1531,44.7665
54538.5,46.1317,44.7454
54547.9,46.1102,44.7243
54557.3,46.0887,44.7032
54566.7,46.0672,44.6821
54576.2,46.0458,44.661
54585.6,46.0243,44.6399
54595,46.0028,44.6188
54604.4,45.9813,44.5977
54613.8,45.9599,44.5766
54623.2,45.9384,44.5555
54632.7,45.9169,44.5344
54642.1,45.8954,44.5133
54651.5,45.874,44.4922
54660.9,45.8525,44.4711
54670.3,45.831,44.45
54679.8,45.8096,44.429
54689.2,45.7881,44.4078
54698.6,45.7666,44.3867
54708,45.7451,44.3656
54717.4,45.7237,44.3446
54726.9,45.7022,44.3234
54736.3,45.6807,44.3023
54745.7,45.6592,44.2812
54755.1,45.6378,44.2602
54764.5,45.6163,44.239
54773.9,45.5948,44.218
54783.4,45.5733,44.1968
54792.8,45.5518,44.1758
54802.2,45.5304,44.1547
54811.6,45.5089,44.1335
54821,45.4874,44.1124
54830.5,45.4659,44.0913
54839.9,45.4445,44.0702
54849.3,45.423,44.0491
54858.7,45.4015,44.0281
54868.1,45.38,44.007
54877.6,45.3586,43.9859
54887,45.3371,43.9648
54896.4,45.3156,43.9437
54905.8,45.2941,43.9226
54915.2,45.2727,43.9015
54924.7,45.2512,43.8803
54934.1,45.2297,43.8593
54943.5,45.2083,43.8382
54952.9,45.1868,43.8171
54962.3,45.1656,43.7963
54971.8,45.1456,43.7767
54981.2,45.1255,43.7571
54990.6,45.1055,43.7375
55000,45.0854,43.7179
55009.4,45.0653,43.6983
55018.8,45.0453,43.6787
55028.3,45.0252,43.6591
55037.7,45.0052,43.6395
55047.1,44.9851,43.6199
55056.5,44.965,43.6003
55065.9,44.945,43.5807
55075.4,44.9249,43.5611
55084.8,44.9049,43.5415
55094.2,44.8848,43.5219
55103.6,44.8647,43.5023
55113,44.8447,43.4827
55122.5,44.8246,43.4631
55131.9,44.8046,43.4435
55141.3,44.7845,43.4239
55150.7,44.7644,43.4043
55160.1,44.7444,43.3847
55169.6,44.7243,43.3651
55179,44.7042,43.3455
55188.4,44.6842,43.3259
55197.8,44.6641,43.3063
55207.2,44.6441,43.2867
55216.7,44.624,43.2671
55226.1,44.6039,43.2475
55235.5,44.5839,43.2279
55244.9,44.5638,43.2083
55254.3,44.5438,43.1887
55263.7,44.5237,43.1691
55273.2,44.5036,43.1495
55282.6,44.4836,43.1299
55292,44.4635,43.1103
55301.4,44.4435,43.0907
55310.8,44.4234,43.0711
55320.3,44.4033,43.0515
55329.7,44.3833,43.0319
55339.1,44.3632,43.0123
55348.5,44.3431,42.9927
55357.9,44.3231,42.9731
55367.4,44.303,42.9535
55376.8,44.283,42.9339
55386.2,44.2629,42.9143
55395.6,44.2428,42.8947
55405,44.2228,42.8751
55414.5,44.2027,42.8555
55423.9,44.1827,42.8359
55433.3,44.1626,42.8163
55442.7,44.1425,42.7967
55452.1,44.1225,42.7771
55461.5,44.1024,42.7575
55471,44.0823,42.7379
55480.4,44.0623,42.7183
55489.8,44.0422,42.6987
55499.2,44.0222,42.6791
55508.6,44.0021,42.6595
55518.1,43.982,42.6399
55527.5,43.962,42.6203
55536.9,43.9419,42.6007
55546.3,43.9219,42.5811
55555.7,43.9018,42.5615
55565.2,43.8817,42.5419
55574.6,43.8617,42.5223
55584,43.8416,42.5027
55593.4,43.8216,42.4831
55602.8,43.8015,42.4635
55612.3,43.7814,42.4438
55621.7,43.7614,42.4242
55631.1,43.7413,42.4046
55640.5,43.7212,42.3851
55649.9,43.7012,42.3654
55659.4,43.6811,42.3458
55668.8,43.6611,42.3262
55678.2,43.641,42.3067
55687.6,43.6209,42.287
55697,43.6009,42.2674
55706.4,43.5808,42.2478
55715.9,43.5608,42.2282
55725.3,43.5407,42.2086
55734.7,43.5206,42.189
55744.1,43.5006,42.1694
55753.5,43.4805,42.1498
55763,43.4604,42.1302
55772.4,43.4404,42.1106
55781.8,43.4203,42.091
55791.2,43.4003,42.0714
55800.6,43.3802,42.0518
55810.1,43.3601,42.0322
55819.5,43.3401,42.0126
55828.9,43.32,41.993
55838.3,43.3,41.9734
55847.7,43.2799,41.9538
55857.2,43.2598,41.9342
55866.6,43.2398,41.9146
55876,43.2197,41.895
55885.4,43.1997,41.8754
55894.8,43.1796,41.8558
55904.2,43.1595,41.8362
55913.7,43.1395,41.8166
55923.1,43.1194,41.797
55932.5,43.0993,41.7774
55941.9,43.0793,41.7578
55951.3,43.0592,41.7382
55960.8,43.0392,41.7186
55970.2,43.0191,41.699
55979.6,42.999,41.6794
55989,42.979,41.6598
55998.4,42.9589,41.6402
56007.9,42.9389,41.6206
56017.3,42.9188,41.601
56026.7,42.8987,41.5814
56036.1,42.8797,41.5627
56045.5,42.8613,41.5444
56055,42.8428,41.5262
56064.4,42.8244,41.5079
56073.8,42.806,41.4896
56083.2,42.7875,41.4714
56092.6,42.7691,41.4531
56102.1,42.7507,41.4349
56111.5,42.7322,41.4166
56120.9,42.7138,41.3983
56130.3,42.6953,41.3801
56139.7,42.6769,41.3618
56149.1,42.6585,41.3435
56158.6,42.64,41.3253
56168,42.6216,41.307
56177.4,42.6031,41.2888
56186.8,42.5847,41.2705
56196.2,42.5662,41.2522
56205.7,42.5478,41.234
56215.1,42.5294,41.2157
56224.5,42.5109,41.1975
56233.9,42.4925,41.1792
56243.3,42.4741,41.1609
56252.8,42.4556,41.1427
56262.2,42.4372,41.1244
56271.6,42.4187,41.1062
56281,42.4003,41.0879
56290.4,42.3818,41.0696
56299.9,42.3634,41.0514
56309.3,42.345,41.0331
56318.7,42.3265,41.0149
56328.1,42.3081,40.9966
56337.5,42.2897,40.9783
56346.9,42.2712,40.9601
56356.4,42.2528,40.9418
56365.8,42.2343,40.9235
56375.2,42.2159,40.9053
56384.6,42.1975,40.887
56394,42.179,40.8688
56403.5,42.1606,40.8505
56412.9,42.1421,40.8322
56422.3,42.1237,40.814
56431.7,42.1053,40.7957
56441.1,42.0868,40.7775
56450.6,42.0684,40.7592
56460,42.0499,40.7409
56469.4,42.0315,40.7227
56478.8,42.0131,40.7044
56488.2,41.9946,40.6862
56497.7,41.9762,40.6679
56507.1,41.9577,40.6496
56516.5,41.9393,40.6314
56525.9,41.9209,40.6131
56535.3,41.9024,40.5949
56544.8,41.884,40.5766
56554.2,41.8655,40.5583
56563.6,41.8471,40.5401
56573,41.8287,40.5218
56582.4,41.8102,40.5035
56591.8,41.7918,40.4853
56601.3,41.7733,40.467
56610.7,41.7549,40.4488
56620.1,41.7365,40.4305
56629.5,41.718,40.4122
56638.9,41.6996,40.394
56648.4,41.6811,40.3757
56657.8,41.6627,40.3575
56667.2,41.6443,40.3392
56676.6,41.6258,40.3209
56686,41.6074,40.3027
56695.5,41.5889,40.2844
56704.9,41.5705,40.2662
56714.3,41.5521,40.2479
56723.7,41.5336,40.2296
56733.1,41.5152,40.2114
56742.6,41.4967,40.1931
56752,41.4783,40.1749
56761.4,41.4599,40.1566
56770.8,41.4414,40.1383
56780.2,41.423,40.1201
56789.6,41.4045,40.1018
56799.1,41.3861,40.0835
56808.5,41.3677,40.0653
56817.9,41.3492,40.047
56827.3,41.3308,40.0288
56836.7,41.3123,40.0105
56846.2,41.2939,39.9922
56855.6,41.2755,39.974
56865,41.257,39.9557
56874.4,41.2386,39.9375
56883.8,41.2201,39.9192
56893.3,41.2017,39.9009
56902.7,41.1833,39.8827
56912.1,41.1648,39.8644
56921.5,41.1464,39.8462
56930.9,41.1279,39.8279
56940.4,41.1095,39.8096
56949.8,41.0911,39.7914
56959.2,41.0726,39.7731
56968.6,41.0542,39.7549
56978,41.0357,39.7366
56987.5,41.0173,39.7183
56996.9,40.9989,39.7001
57006.3,40.9804,39.6818
57015.7,40.962,39.6635
57025.1,40.9435,39.6453
57034.6,40.9251,39.627
57044,40.9067,39.6088
57053.4,40.8882,39.5905
57062.8,40.8698,39.5722
57072.2,40.8513,39.554
57081.6,40.8329,39.5357
57091.1,40.8145,39.5175
57100.5,40.796,39.4992
57109.9,40.7776,39.4809
57119.3,40.7591,39.4627
57128.7,40.7407,39.4444
57138.2,40.7232,39.4274
57147.6,40.7059,39.4105
57157,40.6886,39.3936
57166.4,40.6713,39.3767
57175.8,40.654,39.3598
57185.3,40.6366,39.343
57194.7,40.6193,39.3261
57204.1,40.602,39.3092
57213.5,40.5847,39.2923
57222.9,40.5674,39.2754
57232.3,40.55,39.2586
57241.8,40.5327,39.2417
57251.2,40.5154,39.2248
57260.6,40.4981,39.2079
57270,40.4808,39.191
57279.4,40.4634,39.1742
57288.9,40.4461,39.1573
57298.3,40.4288,39.1404
57307.7,40.4115,39.1235
57317.1,40.3942,39.1066
57326.5,40.3768,39.0898
57336,40.3595,39.0729
57345.4,40.3422,39.056
57354.8,40.3249,39.0391
57364.2,40.3076,39.0222
57373.6,40.2903,39.0054
57383.1,40.2729,38.9885
57392.5,40.2556,38.9716
57401.9,40.2383,38.9547
57411.3,40.221,38.9378
57420.7,40.2037,38.921
57430.2,40.1863,38.9041
57439.6,40.169,38.8872
57449,40.1517,38.8703
57458.4,40.1344,38.8534
57467.8,40.1171,38.8366
57477.2,40.0997,38.8197
57486.7,40.0824,38.8028
57496.1,40.0651,38.7859
57505.5,40.0478,38.769
57514.9,40.0305,38.7522
57524.3,40.0131,38.7353
57533.8,39.9958,38.7184
57543.2,39.9785,38.7015
57552.6,39.9612,38.6846
57562,39.9439,38.6678
57571.4,39.9265,38.6509
57580.9,39.9092,38.634
57590.3,39.8919,38.6171
57599.7,39.8746,38.6002
57609.1,39.8573,38.5834
57618.5,39.8399,38.5665
57628,39.8226,38.5496
57637.4,39.8053,38.5327
57646.8,39.788,38.5158
57656.2,39.7707,38.499
57665.6,39.7534,38.4821
57675.1,39.736,38.4652
57684.5,39.7187,38.4483
57693.9,39.7014,38.4314
57703.3,39.6841,38.4146
57712.7,39.6668,38.3977
57722.1,39.6494,38.3808
57731.6,39.6321,38.3639
57741,39.6148,38.347
57750.4,39.5975,38.3302
57759.8,39.5802,38.3133
57769.2,39.5628,38.2964
57778.7,39.5455,38.2795
57788.1,39.5282,38.2626
57797.5,39.5109,38.2458
57806.9,39.4936,38.2289
57816.3,39.4762,38.212
57825.8,39.4589,38.1951
57835.2,39.4416,38.1782
57844.6,39.4243,38.1614
57854,39.407,38.1445
57863.4,39.3896,38.1276
57872.9,39.3723,38.1107
57882.3,39.355,38.0939
57891.7,39.3377,38.077
57901.1,39.3204,38.0601
57910.5,39.303,38.0432
57919.9,39.2857,38.0263
57929.4,39.2684,38.0094
57938.8,39.2511,37.9926
57948.2,39.2338,37.9757
57957.6,39.2164,37.9588
57967,39.1991,37.9419
57976.5,39.1818,37.9251
57985.9,39.1645,37.9082
57995.3,39.1472,37.8913
58004.7,39.1298,37.8744
58014.1,39.1125,37.8575
58023.6,39.0952,37.8407
58033,39.0779,37.8238
58042.4,39.0606,37.8069
58051.8,39.0433,37.79
58061.2,39.0259,37.7731
58070.7,39.0086,37.7563
58080.1,38.9913,37.7394
58089.5,38.974,37.7225
58098.9,38.9567,37.7056
58108.3,38.9393,37.6887
58117.8,38.922,37.6719
58127.2,38.9047,37.655
58136.6,38.8874,37.6381
58146,38.8701,37.6212
58155.4,38.8527,37.6043
58164.8,38.8354,37.5875
58174.3,38.8181,37.5706
58183.7,38.8008,37.5537
58193.1,38.7835,37.5368
58202.5,38.7661,37.5199
58211.9,38.7488,37.5031
58221.4,38.7315,37.4862
58230.8,38.7142,37.4693
58240.2,38.6969,37.4524
58249.6,38.6796,37.4355
58259,38.6633,37.4196
58268.5,38.6472,37.4037
58277.9,38.6311,37.3878
58287.3,38.6149,37.3719
58296.7,38.5987,37.356
58306.1,38.5826,37.3401
58315.6,38.5664,37.3242
58325,38.5503,37.3084
58334.4,38.5341,37.2925
58343.8,38.518,37.2766
58353.2,38.5018,37.2607
58362.6,38.4857,37.2448
58372.1,38.4695,37.2289
58381.5,38.4534,37.213
58390.9,38.4372,37.1971
58400.3,38.4211,37.1812
58409.7,38.4049,37.1653
58419.2,38.3888,37.1494
58428.6,38.3726,37.1335
58438,38.3565,37.1176
58447.4,38.3403,37.1017
58456.8,38.3242,37.0859
58466.3,38.308,37.07
58475.7,38.2919,37.0541
58485.1,38.2757,37.0382
58494.5,38.2596,37.0223
58503.9,38.2434,37.0064
58513.4,38.2273,36.9905
58522.8,38.2111,36.9746
58532.2,38.1949,36.9587
58541.6,38.1788,36.9428
58551,38.1626,36.9269
58560.4,38.1465,36.911
58569.9,38.1303,36.8951
58579.3,38.1142,36.8793
58588.7,38.098,36.8634
58598.1,38.0819,36.8475
58607.5,38.0657,36.8316
58617,38.0496,36.8157
58626.4,38.0334,36.7998
58635.8,38.0173,36.7839
58645.2,38.0011,36.768
58654.6,37.985,36.7521
58664.1,37.9688,36.7362
58673.5,37.9527,36.7203
58682.9,37.9365,36.7044
58692.3,37.9204,36.6885
58701.7,37.9042,36.6726
58711.2,37.8881,36.6567
58720.6,37.8719,36.6409
58730,37.8558,36.625
58739.4,37.8396,36.6091
58748.8,37.8235,36.5932
58758.2,37.8073,36.5773
58767.7,37.7912,36.5614
58777.1,37.775,36.5455
58786.5,37.7589,36.5296
58795.9,37.7427,36.5137
58805.3,37.7266,36.4978
58814.8,37.7104,36.4819
58824.2,37.6942,36.466
58833.6,37.6781,36.4502
58843,37.6619,36.4343
58852.4,37.6458,36.4184
58861.9,37.6296,36.4025
58871.3,37.6135,36.3866
58880.7,37.5973,36.3707
58890.1,37.5812,36.3548
58899.5,37.565,36.3389
58909,37.5489,36.323
58918.4,37.5327,36.3071
58927.8,37.5166,36.2912
58937.2,37.5004,36.2753
58946.6,37.4843,36.2594
58956.1,37.4681,36.2435
58965.5,37.452,36.2277
58974.9,37.4358,36.2118
58984.3,37.4197,36.1959
58993.7,37.4035,36.18
59003.2,37.3874,36.1641
59012.6,37.3712,36.1482
59022,37.3551,36.1323
59031.4,37.3389,36.1164
59040.8,37.3228,36.1005
59050.2,37.3066,36.0846
59059.7,37.2904,36.0687
59069.1,37.2743,36.0528
59078.5,37.2581,36.0369
59087.9,37.242,36.0211
59097.3,37.2258,36.0052
59106.8,37.2097,35.9893
59116.2,37.1935,35.9734
59125.6,37.1774,35.9575
59135,37.1612,35.9416
59144.4,37.1451,35.9257
59153.9,37.1289,35.9098
59163.3,37.1128,35.8939
59172.7,37.0966,35.878
59182.1,37.0805,35.8621
59191.5,37.0643,35.8462
59201,37.0482,35.8303
59210.4,37.032,35.8144
59219.8,37.0159,35.7985
59229.2,36.9997,35.7827
59238.6,36.9836,35.7668
59248,36.9674,35.7509
59257.5,36.9513,35.735
59266.9,36.9351,35.7191
59276.3,36.919,35.7032
59285.7,36.9028,35.6873
59295.1,36.8867,35.6714
59304.6,36.8705,35.6555
59314,36.8544,35.6396
59323.4,36.8382,35.6237
59332.8,36.822,35.6078
59342.2,36.8059,35.5919
59351.7,36.7897,35.5761
59361.1,36.7736,35.5602
59370.5,36.7574,35.5443
59379.9,36.7413,35.5284
59389.3,36.7251,35.5125
59398.8,36.7097,35.4973
59408.2,36.6944,35.4821
59417.6,36.6791,35.4669
59427,36.6637,35.4517
59436.4,36.6484,35.4366
59445.9,36.6331,35.4214
59455.3,36.6177,35.4062
59464.7,36.6024,35.391
59474.1,36.5871,35.3759
59483.5,36.5717,35.3607
59492.9,36.5564,35.3455
59502.4,36.5411,35.3304
59511.8,36.5257,35.3152
59521.2,36.5104,35.3
59530.6,36.4951,35.2848
59540,36.4797,35.2697
59549.5,36.4644,35.2545
59558.9,36.4491,35.2393
59568.3,36.4337,35.2241
59577.7,36.4184,35.209
59587.1,36.403,35.1938
59596.6,36.3877,35.1786
59606,36.3724,35.1634
59615.4,36.357,35.1483
59624.8,36.3417,35.1331
59634.2,36.3264,35.1179
59643.7,36.311,35.1028
59653.1,36.2957,35.0876
59662.5,36.2804,35.0724
59671.9,36.265,35.0572
59681.3,36.2497,35.0421
59690.7,36.2344,35.0269
59700.2,36.219,35.0117
59709.6,36.2037,34.9965
59719,36.1884,34.9814
59728.4,36.173,34.9662
59737.8,36.1577,34.951
59747.3,36.1424,34.9358
59756.7,36.127,34.9207
59766.1,36.1117,34.9055
59775.5,36.0964,34.8903
59784.9,36.081,34.8752
59794.4,36.0657,34.86
59803.8,36.0503,34.8448
59813.2,36.035,34.8296
59822.6,36.0197,34.8145
59832,36.0043,34.7993
59841.5,35.989,34.7841
59850.9,35.9737,34.7689
59860.3,35.9583,34.7538
59869.7,35.943,34.7386
59879.1,35.9277,34.7234
59888.6,35.9123,34.7082
59898,35.897,34.6931
59907.4,35.8817,34.6779
59916.8,35.8663,34.6627
59926.2,35.851,34.6476
59935.6,35.8357,34.6324
59945.1,35.8203,34.6172
59954.5,35.805,34.602
59963.9,35.7897,34.5869
59973.3,35.7743,34.5717
59982.7,35.759,34.5565
59992.2,35.7437,34.5413
60001.6,35.7284,34.5263
60011,35.7135,34.512
